Time:250Hz,Epoch,FCz,Oz,O1,PO7,O2,PO8,PO3,PO4,Event Id,Event Date,Event Duration
0.0000000000,0,-7419.2812500000,-7549.4355468750,-7706.5458984375,-7488.9741210938,-75391.8984375000,-115384.6640625000,-127537.1015625000,-141265.8593750000,,,
0.0040000000,0,-7421.9189453125,-7552.1176757813,-7709.1835937500,-7491.6113281250,-75394.4843750000,-115387.3671875000,-127539.7421875000,-141268.5781250000,,,
0.0079999999,0,-7422.3657226563,-7552.4082031250,-7709.4741210938,-7491.8349609375,-75394.7109375000,-115387.5468750000,-127539.8750000000,-141268.7343750000,,,
0.0119999999,0,-7420.5776367188,-7550.6425781250,-7707.7304687500,-7490.0917968750,-75393.0312500000,-115385.6484375000,-127538.0859375000,-141266.9062500000,,,
0.0159999998,0,-7418.6777343750,-7548.8544921875,-7706.1210937500,-7488.4150390625,-75391.3828125000,-115383.9453125000,-127536.3671875000,-141265.2500000000,,,
0.0199999998,0,-7417.3144531250,-7547.4238281250,-7704.6684570313,-7486.9848632813,-75389.9687500000,-115382.6250000000,-127535.0234375000,-141263.8906250000,,,
0.0240000000,0,-7418.4765625000,-7548.4746093750,-7705.5625000000,-7487.9233398438,-75390.8437500000,-115383.6328125000,-127535.9453125000,-141264.7812500000,,,
0.0279999999,0,-7419.2587890625,-7549.3012695313,-7706.3671875000,-7488.7504882813,-75391.6484375000,-115384.3515625000,-127536.6093750000,-141265.3906250000,,,
0.0319999999,0,-7416.4648437500,-7546.5297851563,-7703.7070312500,-7486.1577148438,-75389.1015625000,-115381.6875000000,-127533.9531250000,-141262.8593750000,,,
0.0359999998,0,-7414.8779296875,-7545.0771484375,-7702.1875000000,-7484.6152343750,-75387.6718750000,-115380.3515625000,-127532.5859375000,-141261.4843750000,,,
0.0399999998,0,-7419.5048828125,-7549.6816406250,-7706.5908203125,-7489.1528320313,-75392.0078125000,-115384.7500000000,-127536.9687500000,-141265.8437500000,,,
0.0440000000,0,-7418.0073242188,-7548.0048828125,-7704.9140625000,-7487.4990234375,-75390.3046875000,-115382.8515625000,-127535.1562500000,-141264.0937500000,,,
0.0480000000,0,-7415.4589843750,-7545.5463867188,-7702.5673828125,-7485.1293945313,-75387.9140625000,-115380.4140625000,-127532.8828125000,-141261.7656250000,,,
0.0519999999,0,-7416.0180664063,-7546.1274414063,-7703.2153320313,-7485.8002929688,-75388.6562500000,-115381.1953125000,-127533.5937500000,-141262.6562500000,,,
0.0559999999,0,-7417.2026367188,-7547.3120117188,-7704.1767578125,-7486.8730468750,-75389.6796875000,-115382.2031250000,-127534.5156250000,-141263.5156250000,,,
0.0599999998,0,-7419.7285156250,-7549.8823242188,-7706.6801757813,-7489.2646484375,-75392.1171875000,-115384.7265625000,-127536.8828125000,-141265.8593750000,,,
0.0639999998,0,-7419.5493164063,-7549.7485351563,-7706.6577148438,-7489.1752929688,-75392.0703125000,-115384.5937500000,-127536.7890625000,-141265.7968750000,,,
0.0680000000,0,-7418.7451171875,-7549.1000976563,-7706.0766601563,-7488.6386718750,-75391.5781250000,-115384.0625000000,-127536.2812500000,-141265.3437500000,,,
0.0719999999,0,-7419.1918945313,-7549.3906250000,-7706.2553710938,-7489.0410156250,-75391.8750000000,-115384.4375000000,-127536.5468750000,-141265.7031250000,,,
0.0759999999,0,-7421.2036132813,-7551.2905273438,-7708.2001953125,-7490.7846679688,-75393.6406250000,-115386.2734375000,-127538.3750000000,-141267.4218750000,,,
0.0799999998,0,-7420.1528320313,-7550.3295898438,-7707.3505859375,-7489.7788085938,-75392.6796875000,-115385.2656250000,-127537.4609375000,-141266.4218750000,,,
0.0839999998,0,-7419.1918945313,-7549.4130859375,-7706.6127929688,-7489.1303710938,-75392.0703125000,-115384.5937500000,-127536.7890625000,-141265.9062500000,,,
0.0880000000,0,-7420.9130859375,-7551.1342773438,-7708.1777343750,-7490.8291015625,-75393.6171875000,-115386.3203125000,-127538.3359375000,-141267.5156250000,,,
0.0919999999,0,-7420.3989257813,-7550.5307617188,-7707.4174804688,-7490.0917968750,-75392.7656250000,-115385.4921875000,-127537.5078125000,-141266.6250000000,,,
0.0959999999,0,-7423.5283203125,-7553.6152343750,-7710.5244140625,-7493.1987304688,-75396.0312500000,-115388.5312500000,-127540.5937500000,-141269.6562500000,,,
0.0999999999,0,-7423.2153320313,-7553.4365234375,-7710.5693359375,-7493.0644531250,-75396.0078125000,-115388.4609375000,-127540.5703125000,-141269.8125000000,,,
0.1039999998,0,-7422.8798828125,-7553.1684570313,-7710.1669921875,-7492.8408203125,-75395.6015625000,-115388.2421875000,-127540.3203125000,-141269.5937500000,,,
0.1079999998,0,-7425.4282226563,-7555.5375976563,-7712.4692382813,-7495.1879882813,-75397.8828125000,-115390.5390625000,-127542.5546875000,-141271.6718750000,,,
0.1120000000,0,-7422.8574218750,-7552.9892578125,-7710.0327148438,-7492.5502929688,-75395.3593750000,-115387.8359375000,-127539.8515625000,-141268.9218750000,,,
0.1159999999,0,-7418.1191406250,-7548.3847656250,-7705.5849609375,-7488.0800781250,-75390.9140625000,-115383.3203125000,-127535.4531250000,-141264.6093750000,,,
0.1199999999,0,-7415.7050781250,-7546.1049804688,-7703.1933593750,-7485.7329101563,-75388.6093750000,-115381.0156250000,-127533.1718750000,-141262.3906250000,,,
0.1239999998,0,-7417.7167968750,-7547.9604492188,-7704.9589843750,-7487.4765625000,-75390.2890625000,-115382.8515625000,-127534.8437500000,-141264.0468750000,,,
0.1279999998,1,-7418.9238281250,-7549.0332031250,-7706.0092773438,-7488.5268554688,-75391.3593750000,-115383.8359375000,-127535.8515625000,-141264.9687500000,,,
0.1319999998,1,-7417.5380859375,-7547.8486328125,-7705.0258789063,-7487.4990234375,-75390.3984375000,-115382.7890625000,-127534.7812500000,-141264.0312500000,,,
0.1359999997,1,-7418.2309570313,-7548.6533203125,-7705.7861328125,-7488.3706054688,-75391.2265625000,-115383.6562500000,-127535.6718750000,-141264.9375000000,,,
0.1399999997,1,-7419.7504882813,-7549.9941406250,-7706.9482421875,-7489.5327148438,-75392.4296875000,-115384.9765625000,-127536.9296875000,-141266.1250000000,,,
0.1439999996,1,-7417.0239257813,-7547.1557617188,-7704.2436523438,-7486.6494140625,-75389.5937500000,-115382.1562500000,-127533.9296875000,-141263.2656250000,,,
0.1479999996,1,-7413.9394531250,-7544.1381835938,-7701.3603515625,-7483.6767578125,-75386.6640625000,-115379.0781250000,-127530.8671875000,-141260.2656250000,,,
0.1519999998,1,-7415.8837890625,-7546.2167968750,-7703.4614257813,-7485.8447265625,-75388.8515625000,-115381.2421875000,-127532.9921875000,-141262.5000000000,,,
0.1559999997,1,-7420.9355468750,-7551.2905273438,-7708.3115234375,-7490.8740234375,-75393.6796875000,-115386.2265625000,-127537.9531250000,-141267.3593750000,,,
0.1599999997,1,-7421.2480468750,-7551.6035156250,-7708.5800781250,-7491.0976562500,-75393.8593750000,-115386.3593750000,-127538.0468750000,-141267.4687500000,,,
0.1639999996,1,-7419.3706054688,-7549.6816406250,-7706.7470703125,-7489.1083984375,-75392.0703125000,-115384.4140625000,-127536.1640625000,-141265.6093750000,,,
0.1679999996,1,-7420.3540039063,-7550.7094726563,-7707.8198242188,-7490.3598632813,-75393.2812500000,-115385.5781250000,-127537.4140625000,-141266.8906250000,,,
0.1719999998,1,-7422.3881835938,-7552.6987304688,-7709.7197265625,-7492.2373046875,-75395.0234375000,-115387.5468750000,-127539.2968750000,-141268.7812500000,,,
0.1759999997,1,-7423.8188476563,-7554.0844726563,-7711.0161132813,-7493.4892578125,-75396.2500000000,-115388.7500000000,-127540.4375000000,-141269.9218750000,,,
0.1799999997,1,-7421.6503906250,-7551.9165039063,-7708.9375000000,-7491.2988281250,-75394.1562500000,-115386.5390625000,-127538.2890625000,-141267.6875000000,,,
0.1839999997,1,-7419.5717773438,-7549.7929687500,-7707.0151367188,-7489.4433593750,-75392.2500000000,-115384.6640625000,-127536.4531250000,-141265.9531250000,,,
0.1879999996,1,-7420.0415039063,-7550.1508789063,-7707.2612304688,-7489.8232421875,-75392.6328125000,-115385.0000000000,-127536.8359375000,-141266.2812500000,,,
0.1919999996,1,-7419.7285156250,-7549.8603515625,-7706.8139648438,-7489.2421875000,-75392.2265625000,-115384.5546875000,-127536.2968750000,-141265.6875000000,,,
0.1959999998,1,-7421.6953125000,-7551.7602539063,-7708.9375000000,-7491.1870117188,-75394.2656250000,-115386.3593750000,-127538.2656250000,-141267.5781250000,,,
0.1999999997,1,-7424.3999023438,-7554.5766601563,-7711.9775390625,-7494.3383789063,-75397.2812500000,-115389.4218750000,-127541.3046875000,-141270.7031250000,,,
0.2039999997,1,-7424.2880859375,-7554.5986328125,-7711.8432617188,-7494.2714843750,-75397.2109375000,-115389.6015625000,-127541.3281250000,-141270.7031250000,,,
0.2079999996,1,-7420.8681640625,-7551.0893554688,-7708.1328125000,-7490.5161132813,-75393.4843750000,-115385.7812500000,-127537.4609375000,-141266.8906250000,,,
0.2119999996,1,-7418.8344726563,-7549.0556640625,-7706.2329101563,-7488.5048828125,-75391.4062500000,-115383.6328125000,-127535.3828125000,-141264.7187500000,,,
0.2159999998,1,-7420.9130859375,-7551.1342773438,-7708.4682617188,-7490.8291015625,-75393.7031250000,-115385.8906250000,-127537.6875000000,-141267.0625000000,,,
0.2199999997,1,-7420.8237304688,-7551.1342773438,-7708.4682617188,-7490.8515625000,-75393.7265625000,-115385.9843750000,-127537.6875000000,-141267.1250000000,,,
0.2239999997,1,-7423.5283203125,-7553.7719726563,-7710.9042968750,-7493.2880859375,-75396.1406250000,-115388.4843750000,-127540.1640625000,-141269.5937500000,,,
0.2279999997,1,-7423.9306640625,-7554.1518554688,-7711.2397460938,-7493.6679687500,-75396.4765625000,-115388.7343750000,-127540.3906250000,-141269.8125000000,,,
0.2319999996,1,-7422.4775390625,-7552.7436523438,-7710.1445312500,-7492.4160156250,-75395.3125000000,-115387.4375000000,-127539.1640625000,-141268.7031250000,,,
0.2359999996,1,-7422.5000000000,-7552.8999023438,-7710.3232421875,-7492.6845703125,-75395.4921875000,-115387.6796875000,-127539.4296875000,-141268.9687500000,,,
0.2399999998,1,-7422.9467773438,-7553.1684570313,-7710.4575195313,-7492.9750976563,-75395.6718750000,-115387.8828125000,-127539.5625000000,-141268.9843750000,,,
0.2439999997,1,-7423.2597656250,-7553.3471679688,-7710.6811523438,-7493.0869140625,-75395.8515625000,-115388.0625000000,-127539.6953125000,-141268.9843750000,,,
0.2479999997,1,-7421.0693359375,-7551.1791992188,-7708.6918945313,-7490.9858398438,-75393.8203125000,-115385.9609375000,-127537.6406250000,-141266.9687500000,,,
0.2519999996,1,-7421.2705078125,-7551.5590820313,-7709.0942382813,-7491.4106445313,-75394.2421875000,-115386.3828125000,-127538.0625000000,-141267.5781250000,,,
0.2559999996,2,-7421.8515625000,-7551.9614257813,-7709.4291992188,-7491.7905273438,-75394.4687500000,-115386.7421875000,-127538.3593750000,-141267.7968750000,,,
0.2599999995,2,-7422.0307617188,-7551.9389648438,-7709.3847656250,-7491.7231445313,-75394.4218750000,-115386.7187500000,-127538.1328125000,-141267.6093750000,,,
0.2639999995,2,-7421.0917968750,-7551.1791992188,-7708.6694335938,-7491.0083007813,-75393.7031250000,-115385.8671875000,-127537.3984375000,-141266.7968750000,,,
0.2679999995,2,-7418.0742187500,-7548.1835937500,-7705.8081054688,-7488.1918945313,-75390.8437500000,-115382.9843750000,-127534.6015625000,-141264.0937500000,,,
0.2719999994,2,-7417.5600585938,-7547.5805664063,-7705.2045898438,-7487.5883789063,-75390.2421875000,-115382.3593750000,-127533.9765625000,-141263.4375000000,,,
0.2759999994,2,-7421.4272460938,-7551.3579101563,-7708.9150390625,-7491.3208007813,-75393.8593750000,-115386.0234375000,-127537.5703125000,-141267.0156250000,,,
0.2799999996,2,-7421.1586914063,-7551.0673828125,-7708.7138671875,-7491.0083007813,-75393.5937500000,-115385.6718750000,-127537.2187500000,-141266.7343750000,,,
0.2839999995,2,-7418.3647460938,-7548.4072265625,-7706.1210937500,-7488.4824218750,-75391.0937500000,-115383.1015625000,-127534.7578125000,-141264.2656250000,,,
0.2879999995,2,-7417.4707031250,-7547.4907226563,-7705.1152343750,-7487.4316406250,-75390.1328125000,-115382.2031250000,-127533.7968750000,-141263.2500000000,,,
0.2919999994,2,-7420.3095703125,-7550.2846679688,-7707.8198242188,-7490.0917968750,-75392.7421875000,-115384.9296875000,-127536.3671875000,-141265.8750000000,,,
0.2959999994,2,-7419.1918945313,-7549.1225585938,-7706.6577148438,-7488.9291992188,-75391.5781250000,-115383.6328125000,-127535.0468750000,-141264.6093750000,,,
0.2999999996,2,-7415.7495117188,-7545.9711914063,-7703.5058593750,-7485.7778320313,-75388.5390625000,-115380.4843750000,-127532.0312500000,-141261.5625000000,,,
0.3039999995,2,-7417.3369140625,-7547.6474609375,-7705.0258789063,-7487.5434570313,-75390.1328125000,-115382.2265625000,-127533.7265625000,-141263.2031250000,,,
0.3079999995,2,-7418.3203125000,-7548.3178710938,-7705.6967773438,-7488.2587890625,-75390.7968750000,-115382.9218750000,-127534.3359375000,-141263.7812500000,,,
0.3119999995,2,-7419.0800781250,-7549.0332031250,-7706.5014648438,-7488.9965820313,-75391.4921875000,-115383.5468750000,-127534.9843750000,-141264.5625000000,,,
0.3159999994,2,-7417.7392578125,-7547.7592773438,-7705.4731445313,-7487.8789062500,-75390.4609375000,-115382.2968750000,-127533.9296875000,-141263.4843750000,,,
0.3199999994,2,-7417.4482421875,-7547.6025390625,-7705.2495117188,-7487.6777343750,-75390.2421875000,-115382.2031250000,-127533.6640625000,-141263.3281250000,,,
0.3239999996,2,-7420.1308593750,-7550.0615234375,-7707.5742187500,-7490.0244140625,-75392.5234375000,-115384.5312500000,-127536.0078125000,-141265.6875000000,,,
0.3279999995,2,-7420.1528320313,-7550.0834960938,-7707.6860351563,-7490.0917968750,-75392.4531250000,-115384.4843750000,-127535.9609375000,-141265.5156250000,,,
0.3319999995,2,-7418.5439453125,-7548.5859375000,-7706.2104492188,-7488.6386718750,-75391.1562500000,-115383.0078125000,-127534.5312500000,-141264.1093750000,,,
0.3359999994,2,-7416.2636718750,-7546.4179687500,-7703.9980468750,-7486.5375976563,-75389.0546875000,-115380.9296875000,-127532.3906250000,-141262.1718750000,,,
0.3399999994,2,-7418.1416015625,-7548.2285156250,-7705.6293945313,-7488.2363281250,-75390.6640625000,-115382.7421875000,-127534.0000000000,-141263.7500000000,,,
0.3439999996,2,-7418.3647460938,-7548.2734375000,-7705.7412109375,-7488.1469726563,-75390.6640625000,-115382.6718750000,-127533.9062500000,-141263.6406250000,,,
0.3479999995,2,-7416.1518554688,-7546.1499023438,-7703.7519531250,-7486.0908203125,-75388.5625000000,-115380.4609375000,-127531.8046875000,-141261.5468750000,,,
0.3519999995,2,-7415.8837890625,-7545.9931640625,-7703.6625976563,-7486.0683593750,-75388.6562500000,-115380.5312500000,-127531.8281250000,-141261.6093750000,,,
0.3559999994,2,-7417.4482421875,-7547.4462890625,-7705.0258789063,-7487.5659179688,-75390.0390625000,-115381.9609375000,-127533.1250000000,-141262.9375000000,,,
0.3599999994,2,-7418.4321289063,-7548.3847656250,-7705.9423828125,-7488.3256835938,-75390.7734375000,-115382.6484375000,-127533.8828125000,-141263.6406250000,,,
0.3639999994,2,-7416.8452148438,-7546.8872070313,-7704.5566406250,-7486.8061523438,-75389.2578125000,-115381.0859375000,-127532.3203125000,-141262.1093750000,,,
0.3679999996,2,-7416.1743164063,-7546.2836914063,-7703.9755859375,-7486.3139648438,-75388.8750000000,-115380.5703125000,-127531.9218750000,-141261.7031250000,,,
0.3719999995,2,-7417.0239257813,-7547.1108398438,-7704.6015625000,-7487.1186523438,-75389.6562500000,-115381.4921875000,-127532.7890625000,-141262.4843750000,,,
0.3759999995,2,-7416.8002929688,-7546.7758789063,-7704.1992187500,-7486.7163085938,-75389.1718750000,-115381.0390625000,-127532.2109375000,-141262.0156250000,,,
0.3799999994,2,-7416.0180664063,-7545.9487304688,-7703.4614257813,-7485.9121093750,-75388.3828125000,-115380.1250000000,-127531.3359375000,-141261.1718750000,,,
0.3839999994,3,-7418.7226562500,-7548.8544921875,-7706.5234375000,-7488.9291992188,-75391.4687500000,-115383.2578125000,-127534.3750000000,-141264.2968750000,,,
0.3879999993,3,-7416.0625000000,-7546.1723632813,-7703.6625976563,-7486.2695312500,-75388.5625000000,-115380.5703125000,-127531.6250000000,-141261.4531250000,,,
0.3919999993,3,-7417.3588867188,-7547.2675781250,-7704.7578125000,-7487.2753906250,-75389.5703125000,-115381.5781250000,-127532.6562500000,-141262.3906250000,,,
0.3959999993,3,-7420.5107421875,-7550.4189453125,-7708.0209960938,-7490.5161132813,-75392.8125000000,-115384.6640625000,-127535.7421875000,-141265.6093750000,,,
0.3999999992,3,-7417.4931640625,-7547.5581054688,-7705.2495117188,-7487.8789062500,-75390.1328125000,-115381.9609375000,-127533.1015625000,-141262.9687500000,,,
0.4039999992,3,-7417.0683593750,-7547.1108398438,-7704.8027343750,-7487.4316406250,-75389.6796875000,-115381.5078125000,-127532.7265625000,-141262.6250000000,,,
0.4079999994,3,-7417.2250976563,-7547.0883789063,-7704.6684570313,-7487.2084960938,-75389.4843750000,-115381.2421875000,-127532.5000000000,-141262.2968750000,,,
0.4119999993,3,-7416.5541992188,-7546.3735351563,-7703.9082031250,-7486.4257812500,-75388.7656250000,-115380.5078125000,-127531.6484375000,-141261.5000000000,,,
0.4159999993,3,-7416.8671875000,-7546.8652343750,-7704.5341796875,-7486.9624023438,-75389.3281250000,-115381.0156250000,-127532.2734375000,-141262.1406250000,,,
0.4199999992,3,-7413.1567382813,-7543.2885742188,-7700.9130859375,-7483.4531250000,-75385.9062500000,-115377.5546875000,-127528.7031250000,-141258.6406250000,,,
0.4239999992,3,-7413.6708984375,-7543.6909179688,-7701.0922851563,-7483.6992187500,-75386.1093750000,-115377.8203125000,-127528.9687500000,-141258.8437500000,,,
0.4279999994,3,-7415.1240234375,-7545.1440429688,-7702.5673828125,-7485.0849609375,-75387.4218750000,-115379.1171875000,-127530.2656250000,-141260.0937500000,,,
0.4319999993,3,-7411.7934570313,-7541.9477539063,-7699.4829101563,-7481.9555664063,-75384.3828125000,-115376.1484375000,-127527.2734375000,-141257.0312500000,,,
0.4359999993,3,-7413.7158203125,-7543.9370117188,-7701.4497070313,-7484.0791015625,-75386.4843750000,-115378.3125000000,-127529.3906250000,-141259.2656250000,,,
0.4399999992,3,-7415.9506835938,-7546.1943359375,-7703.5058593750,-7486.1801757813,-75388.5390625000,-115380.4140625000,-127531.3593750000,-141261.1875000000,,,
0.4439999992,3,-7415.3476562500,-7545.3896484375,-7702.7685546875,-7485.2636718750,-75387.6484375000,-115379.4531250000,-127530.4453125000,-141260.2031250000,,,
0.4479999992,3,-7416.8002929688,-7546.9321289063,-7704.5566406250,-7486.8061523438,-75389.3906250000,-115381.0625000000,-127532.1406250000,-141261.8750000000,,,
0.4519999993,3,-7414.6542968750,-7544.8979492188,-7702.5898437500,-7484.9062500000,-75387.4921875000,-115379.1640625000,-127530.2421875000,-141260.0468750000,,,
0.4559999993,3,-7415.9062500000,-7546.0830078125,-7703.5732421875,-7486.0908203125,-75388.5234375000,-115380.2578125000,-127531.1562500000,-141261.0312500000,,,
0.4599999993,3,-7417.5156250000,-7547.5805664063,-7705.0258789063,-7487.5209960938,-75389.9687500000,-115381.6875000000,-127532.4531250000,-141262.4375000000,,,
0.4639999992,3,-7415.0566406250,-7545.1440429688,-7702.7016601563,-7485.1293945313,-75387.6015625000,-115379.3203125000,-127530.0859375000,-141260.1093750000,,,
0.4679999992,3,-7415.0791015625,-7545.2558593750,-7702.8803710938,-7485.3305664063,-75387.7812500000,-115379.5703125000,-127530.5312500000,-141260.4218750000,,,
0.4719999994,3,-7417.2919921875,-7547.4013671875,-7704.9589843750,-7487.4541015625,-75389.8828125000,-115381.7578125000,-127532.6093750000,-141262.3906250000,,,
0.4759999993,3,-7417.1357421875,-7547.1557617188,-7704.6684570313,-7487.2304687500,-75389.5468750000,-115381.3515625000,-127532.1875000000,-141261.9687500000,,,
0.4799999993,3,-7415.3476562500,-7545.2558593750,-7702.9472656250,-7485.4423828125,-75387.8515625000,-115379.3671875000,-127530.2890625000,-141260.0937500000,,,
0.4839999992,3,-7414.4980468750,-7544.5849609375,-7702.3886718750,-7484.6826171875,-75387.1562500000,-115378.8515625000,-127529.7031250000,-141259.5156250000,,,
0.4879999992,3,-7416.8002929688,-7546.9770507813,-7704.6684570313,-7487.0517578125,-75389.5000000000,-115381.2890625000,-127532.1015625000,-141261.9531250000,,,
0.4919999992,3,-7417.8505859375,-7547.8710937500,-7705.4506835938,-7487.8789062500,-75390.3046875000,-115382.0703125000,-127532.8359375000,-141262.7343750000,,,
0.4959999993,3,-7420.8681640625,-7550.7988281250,-7708.5576171875,-7490.8291015625,-75393.2578125000,-115384.9296875000,-127535.7187500000,-141265.6406250000,,,
0.4999999993,3,-7422.2319335938,-7552.2519531250,-7710.1220703125,-7492.4833984375,-75394.8437500000,-115386.4765625000,-127537.3984375000,-141267.3750000000,,,
0.5039999993,3,-7422.1645507813,-7552.1845703125,-7709.9658203125,-7492.3940429688,-75394.7578125000,-115386.4062500000,-127537.2812500000,-141267.2656250000,,,
0.5079999992,3,-7426.4785156250,-7556.4091796875,-7713.9667968750,-7496.4394531250,-75398.7812500000,-115390.4062500000,-127541.1953125000,-141271.1406250000,,,
0.5119999992,4,-7424.9140625000,-7554.8671875000,-7712.4916992188,-7494.8525390625,-75397.1718750000,-115388.6640625000,-127539.4765625000,-141269.3750000000,,,
0.5159999991,4,-7420.6000976563,-7550.5756835938,-7708.3789062500,-7490.6503906250,-75393.0546875000,-115384.4375000000,-127535.2500000000,-141265.2812500000,,,
0.5199999991,4,-7419.7285156250,-7549.8378906250,-7707.4848632813,-7489.9125976563,-75392.3671875000,-115383.8125000000,-127534.6718750000,-141264.7031250000,,,
0.5239999990,4,-7420.4658203125,-7550.5756835938,-7708.0659179688,-7490.5385742188,-75392.8984375000,-115384.3750000000,-127535.2968750000,-141265.1875000000,,,
0.5279999990,4,-7420.7563476563,-7550.7319335938,-7708.3115234375,-7490.6279296875,-75393.0312500000,-115384.4140625000,-127535.2265625000,-141265.1718750000,,,
0.5319999990,4,-7422.9916992188,-7553.0117187500,-7710.8149414063,-7493.1093750000,-75395.4296875000,-115386.8281250000,-127537.5937500000,-141267.5156250000,,,
0.5359999991,4,-7422.4775390625,-7552.6093750000,-7710.3906250000,-7492.6621093750,-75395.0937500000,-115386.4921875000,-127537.3515625000,-141267.2500000000,,,
0.5399999991,4,-7422.2539062500,-7552.3637695313,-7709.9208984375,-7492.2822265625,-75394.6015625000,-115386.1171875000,-127536.8828125000,-141266.9062500000,,,
0.5439999991,4,-7421.3598632813,-7551.4916992188,-7708.9375000000,-7491.3208007813,-75393.5703125000,-115385.0625000000,-127535.8046875000,-141265.7031250000,,,
0.5479999990,4,-7420.0415039063,-7550.1733398438,-7707.7753906250,-7490.0244140625,-75392.2500000000,-115383.7656250000,-127534.5546875000,-141264.4062500000,,,
0.5519999990,4,-7418.4096679688,-7548.6533203125,-7706.3447265625,-7488.6386718750,-75390.9140625000,-115382.4062500000,-127533.1015625000,-141263.1250000000,,,
0.5559999992,4,-7421.5834960938,-7551.6928710938,-7709.3173828125,-7491.7456054688,-75393.9062500000,-115385.3750000000,-127535.9453125000,-141266.0156250000,,,
0.5599999991,4,-7422.7236328125,-7552.6542968750,-7710.2788085938,-7492.7290039063,-75394.7968750000,-115386.2734375000,-127536.8593750000,-141266.8437500000,,,
0.5639999991,4,-7422.2988281250,-7552.3637695313,-7709.9433593750,-7492.2822265625,-75394.4843750000,-115385.8906250000,-127536.5000000000,-141266.5000000000,,,
0.5679999990,4,-7422.2094726563,-7552.3413085938,-7710.0776367188,-7492.3266601563,-75394.6406250000,-115385.8906250000,-127536.5937500000,-141266.7031250000,,,
0.5719999990,4,-7423.5502929688,-7553.5708007813,-7711.2846679688,-7493.6010742188,-75395.7656250000,-115387.1015625000,-127537.7343750000,-141267.7968750000,,,
0.5759999990,4,-7424.1318359375,-7554.0625000000,-7711.5976562500,-7493.9584960938,-75396.0937500000,-115387.4531250000,-127538.0468750000,-141268.0000000000,,,
0.5799999991,4,-7422.6562500000,-7552.5869140625,-7710.1669921875,-7492.4609375000,-75394.4843750000,-115385.8046875000,-127536.4765625000,-141266.4218750000,,,
0.5839999991,4,-7421.0024414063,-7551.1567382813,-7708.8032226563,-7491.1196289063,-75393.2343750000,-115384.5937500000,-127535.2265625000,-141265.1875000000,,,
0.5879999991,4,-7419.3037109375,-7549.4355468750,-7707.0600585938,-7489.4208984375,-75391.5625000000,-115382.9843750000,-127533.4609375000,-141263.5156250000,,,
0.5919999990,4,-7422.9248046875,-7552.8330078125,-7710.4575195313,-7492.8408203125,-75394.8437500000,-115386.4062500000,-127536.8359375000,-141266.7500000000,,,
0.5959999990,4,-7425.7187500000,-7555.5600585938,-7713.2963867188,-7495.6796875000,-75397.6875000000,-115389.0234375000,-127539.3593750000,-141269.4375000000,,,
0.5999999992,4,-7422.3657226563,-7552.3413085938,-7710.2114257813,-7492.5502929688,-75394.5781250000,-115385.8906250000,-127536.2109375000,-141266.3906250000,,,
0.6039999991,4,-7420.8012695313,-7550.6870117188,-7708.5800781250,-7490.9858398438,-75392.9921875000,-115384.3046875000,-127534.6875000000,-141264.8750000000,,,
0.6079999991,4,-7420.5776367188,-7550.2402343750,-7708.0434570313,-7490.4716796875,-75392.5234375000,-115383.7500000000,-127534.1562500000,-141264.2656250000,,,
0.6119999990,4,-7418.2309570313,-7547.9379882813,-7705.8305664063,-7488.1918945313,-75390.1328125000,-115381.4453125000,-127531.7656250000,-141261.7656250000,,,
0.6159999990,4,-7413.3803710938,-7543.1992187500,-7701.1591796875,-7483.5424804688,-75385.4609375000,-115376.6796875000,-127527.0703125000,-141257.1250000000,,,
0.6199999989,4,-7414.0063476563,-7543.9145507813,-7701.9414062500,-7484.3696289063,-75386.2656250000,-115377.4843750000,-127527.9375000000,-141258.1406250000,,,
0.6239999991,4,-7418.5883789063,-7548.3178710938,-7706.2329101563,-7488.7060546875,-75390.6015625000,-115381.8437500000,-127532.1640625000,-141262.3906250000,,,
0.6279999991,4,-7420.4213867188,-7550.0834960938,-7708.0209960938,-7490.3598632813,-75392.2500000000,-115383.4296875000,-127533.7500000000,-141263.9062500000,,,
0.6319999991,4,-7420.5332031250,-7550.2846679688,-7708.3115234375,-7490.4941406250,-75392.5859375000,-115383.6328125000,-127533.9296875000,-141264.1562500000,,,
0.6359999990,4,-7420.8681640625,-7550.6870117188,-7708.7812500000,-7491.0083007813,-75393.0156250000,-115384.1718750000,-127534.4687500000,-141264.6718750000,,,
0.6399999990,5,-7419.4824218750,-7549.1894531250,-7707.1269531250,-7489.4882812500,-75391.4062500000,-115382.5625000000,-127532.9218750000,-141263.0468750000,,,
0.6439999989,5,-7419.5048828125,-7549.0107421875,-7707.0600585938,-7489.4208984375,-75391.2265625000,-115382.4687500000,-127532.7031250000,-141262.7031250000,,,
0.6479999989,5,-7416.7109375000,-7546.3061523438,-7704.4897460938,-7486.7387695313,-75388.6562500000,-115379.7890625000,-127529.9531250000,-141260.0937500000,,,
0.6519999988,5,-7418.2084960938,-7547.9379882813,-7706.2104492188,-7488.5493164063,-75390.3984375000,-115381.3515625000,-127531.7656250000,-141261.9531250000,,,
0.6559999988,5,-7420.4882812500,-7550.2177734375,-7708.2446289063,-7490.7622070313,-75392.4531250000,-115383.6328125000,-127533.8437500000,-141264.0468750000,,,
0.6599999988,5,-7421.9858398438,-7551.6035156250,-7709.5859375000,-7492.0585937500,-75393.7968750000,-115385.0625000000,-127535.1171875000,-141265.2500000000,,,
0.6639999989,5,-7422.5449218750,-7552.2070312500,-7710.3232421875,-7492.5727539063,-75394.3750000000,-115385.5312500000,-127535.6953125000,-141265.7500000000,,,
0.6679999989,5,-7422.1425781250,-7551.8940429688,-7710.1000976563,-7492.4833984375,-75394.2421875000,-115385.3125000000,-127535.6484375000,-141265.7656250000,,,
0.6719999989,5,-7422.3212890625,-7552.0283203125,-7710.1445312500,-7492.5952148438,-75394.3515625000,-115385.4218750000,-127535.6328125000,-141265.7968750000,,,
0.6759999988,5,-7422.4775390625,-7552.0283203125,-7710.0776367188,-7492.5058593750,-75394.2187500000,-115385.2890625000,-127535.4296875000,-141265.5937500000,,,
0.6799999988,5,-7420.5332031250,-7550.1508789063,-7708.2670898438,-7490.6059570313,-75392.1406250000,-115383.1875000000,-127533.3515625000,-141263.4843750000,,,
0.6839999990,5,-7418.9238281250,-7548.7202148438,-7706.9033203125,-7489.2871093750,-75390.9140625000,-115381.7578125000,-127532.1015625000,-141262.2187500000,,,
0.6879999989,5,-7416.5097656250,-7546.3061523438,-7704.4003906250,-7486.9399414063,-75388.5000000000,-115379.5000000000,-127529.6875000000,-141259.7343750000,,,
0.6919999989,5,-7418.4541015625,-7548.1616210938,-7706.0541992188,-7488.6611328125,-75390.1484375000,-115381.2656250000,-127531.3125000000,-141261.3593750000,,,
0.6959999988,5,-7420.4658203125,-7550.1059570313,-7708.1103515625,-7490.5385742188,-75392.0703125000,-115383.1406250000,-127533.1015625000,-141263.3281250000,,,
0.6999999988,5,-7420.1752929688,-7549.8603515625,-7708.0434570313,-7490.4941406250,-75392.0703125000,-115382.9843750000,-127533.1953125000,-141263.3750000000,,,
0.7039999987,5,-7420.5776367188,-7550.2402343750,-7708.3564453125,-7490.8740234375,-75392.5234375000,-115383.3671875000,-127533.6171875000,-141263.7500000000,,,
0.7079999989,5,-7424.1538085938,-7553.7495117188,-7711.6645507813,-7494.2939453125,-75395.7656250000,-115386.7656250000,-127536.9296875000,-141267.0625000000,,,
0.7119999989,5,-7423.4833984375,-7553.0566406250,-7710.9941406250,-7493.7124023438,-75395.0234375000,-115385.9140625000,-127536.0546875000,-141266.2187500000,,,
0.7159999989,5,-7421.7177734375,-7551.4697265625,-7709.4741210938,-7492.1704101563,-75393.4140625000,-115384.2812500000,-127534.4921875000,-141264.7187500000,,,
0.7199999988,5,-7420.9575195313,-7550.7988281250,-7708.8481445313,-7491.5219726563,-75392.8593750000,-115383.7656250000,-127533.8828125000,-141264.1875000000,,,
0.7239999988,5,-7422.2539062500,-7552.0283203125,-7709.9433593750,-7492.6621093750,-75393.9765625000,-115384.9062500000,-127534.8906250000,-141265.1250000000,,,
0.7279999990,5,-7423.1035156250,-7552.7661132813,-7710.6137695313,-7493.2880859375,-75394.7109375000,-115385.5781250000,-127535.4765625000,-141265.6562500000,,,
0.7319999989,5,-7423.2153320313,-7552.9448242188,-7710.8374023438,-7493.4667968750,-75394.9609375000,-115385.7109375000,-127535.7187500000,-141265.9687500000,,,
0.7359999989,5,-7422.3881835938,-7552.2744140625,-7710.2788085938,-7492.8632812500,-75394.2421875000,-115385.0859375000,-127535.1171875000,-141265.4531250000,,,
0.7399999988,5,-7423.2822265625,-7553.0117187500,-7710.9492187500,-7493.4892578125,-75394.8203125000,-115385.9375000000,-127535.7890625000,-141266.1562500000,,,
0.7439999988,5,-7423.1479492188,-7552.7436523438,-7710.7255859375,-7493.3325195313,-75394.6640625000,-115385.5781250000,-127535.4765625000,-141265.6875000000,,,
0.7479999987,5,-7419.0356445313,-7548.8320312500,-7706.9033203125,-7489.3540039063,-75390.7343750000,-115381.5078125000,-127531.4296875000,-141261.7031250000,,,
0.7519999989,5,-7416.5541992188,-7546.4179687500,-7704.5566406250,-7487.0292968750,-75388.5000000000,-115379.1875000000,-127529.2109375000,-141259.4843750000,,,
0.7559999989,5,-7420.0190429688,-7549.8378906250,-7707.7978515625,-7490.4267578125,-75391.7578125000,-115382.4687500000,-127532.4531250000,-141262.7343750000,,,
0.7599999988,5,-7423.1035156250,-7552.8554687500,-7710.8374023438,-7493.3999023438,-75394.5781250000,-115385.4453125000,-127535.2500000000,-141265.5468750000,,,
0.7639999988,5,-7421.3378906250,-7551.1791992188,-7709.2055664063,-7491.6787109375,-75392.8593750000,-115383.7031250000,-127533.6171875000,-141263.8750000000,,,
0.7679999988,6,-7419.0356445313,-7548.9882812500,-7707.0375976563,-7489.4433593750,-75390.7968750000,-115381.5546875000,-127531.5390625000,-141261.8281250000,,,
0.7719999987,6,-7419.8623046875,-7549.7260742188,-7707.7080078125,-7490.2036132813,-75391.5156250000,-115382.4062500000,-127532.2734375000,-141262.5000000000,,,
0.7759999987,6,-7421.9414062500,-7551.6259765625,-7709.5859375000,-7492.0136718750,-75393.3281250000,-115384.1953125000,-127534.0625000000,-141264.2343750000,,,
0.7799999986,6,-7418.3427734375,-7548.1166992188,-7706.1884765625,-7488.3706054688,-75389.7265625000,-115380.4843750000,-127530.3515625000,-141260.6250000000,,,
0.7839999986,6,-7416.1298828125,-7546.0830078125,-7704.1542968750,-7486.4482421875,-75387.8281250000,-115378.5156250000,-127528.4062500000,-141258.8125000000,,,
0.7879999985,6,-7419.5942382813,-7549.5917968750,-7707.5517578125,-7489.9575195313,-75391.3593750000,-115382.1796875000,-127531.9218750000,-141262.3750000000,,,
0.7919999987,6,-7420.0190429688,-7549.8823242188,-7707.7753906250,-7489.9799804688,-75391.4453125000,-115382.2968750000,-127532.0546875000,-141262.4218750000,,,
0.7959999987,6,-7421.2929687500,-7551.0449218750,-7709.0493164063,-7491.2314453125,-75392.6562500000,-115383.3671875000,-127533.2187500000,-141263.5156250000,,,
0.7999999986,6,-7418.6108398438,-7548.4521484375,-7706.6352539063,-7488.7729492188,-75390.2890625000,-115380.8828125000,-127530.7343750000,-141261.0781250000,,,
0.8039999986,6,-7419.0576171875,-7548.8989257813,-7707.0375976563,-7489.2646484375,-75390.7343750000,-115381.3984375000,-127531.2500000000,-141261.6093750000,,,
0.8079999986,6,-7421.6059570313,-7551.5141601563,-7709.5185546875,-7491.7905273438,-75393.1484375000,-115383.8593750000,-127533.5078125000,-141263.9062500000,,,
0.8119999988,6,-7419.9072265625,-7549.8378906250,-7707.8198242188,-7490.1137695313,-75391.3593750000,-115382.1562500000,-127531.7656250000,-141262.0312500000,,,
0.8159999987,6,-7416.6440429688,-7546.5522460938,-7704.6909179688,-7487.0292968750,-75388.2265625000,-115378.9609375000,-127528.7031250000,-141259.0156250000,,,
0.8199999987,6,-7418.2978515625,-7548.2285156250,-7706.4340820313,-7488.6386718750,-75389.9921875000,-115380.7265625000,-127530.4921875000,-141260.8281250000,,,
0.8239999986,6,-7419.5493164063,-7549.3686523438,-7707.3505859375,-7489.5551757813,-75390.9531250000,-115381.6875000000,-127531.3828125000,-141261.7187500000,,,
0.8279999986,6,-7420.1977539063,-7549.9272460938,-7707.8422851563,-7490.1137695313,-75391.3828125000,-115382.1562500000,-127531.7656250000,-141262.1718750000,,,
0.8319999985,6,-7420.2646484375,-7550.2177734375,-7708.2221679688,-7490.4047851563,-75391.7187500000,-115382.3359375000,-127531.9609375000,-141262.4843750000,,,
0.8359999987,6,-7418.7895507813,-7548.8320312500,-7706.8588867188,-7489.1083984375,-75390.5078125000,-115381.0859375000,-127530.7343750000,-141261.2812500000,,,
0.8399999987,6,-7421.3823242188,-7551.3354492188,-7709.2055664063,-7491.5668945313,-75392.8984375000,-115383.5703125000,-127533.2187500000,-141263.6406250000,,,
0.8439999986,6,-7422.3212890625,-7552.2294921875,-7709.9882812500,-7492.2822265625,-75393.5234375000,-115384.2812500000,-127533.9296875000,-141264.2656250000,,,
0.8479999986,6,-7420.2871093750,-7550.2402343750,-7708.1328125000,-7490.4047851563,-75391.6484375000,-115382.2968750000,-127531.9843750000,-141262.3750000000,,,
0.8519999986,6,-7419.7729492188,-7549.9272460938,-7707.8198242188,-7490.1586914063,-75391.3828125000,-115382.0703125000,-127531.6718750000,-141262.2343750000,,,
0.8559999987,6,-7422.0527343750,-7552.1845703125,-7710.0327148438,-7492.2373046875,-75393.6406250000,-115384.3281250000,-127533.8437500000,-141264.4062500000,,,
0.8599999987,6,-7421.9633789063,-7551.8940429688,-7709.6303710938,-7491.9243164063,-75393.3515625000,-115383.9687500000,-127533.5078125000,-141263.9375000000,,,
0.8639999987,6,-7419.6391601563,-7549.5024414063,-7707.2612304688,-7489.5776367188,-75390.9531250000,-115381.4218750000,-127531.0937500000,-141261.5468750000,,,
0.8679999986,6,-7421.4716796875,-7551.5590820313,-7709.3398437500,-7491.6787109375,-75393.0781250000,-115383.5000000000,-127533.2578125000,-141263.7343750000,,,
0.8719999986,6,-7423.5502929688,-7553.7045898438,-7711.5302734375,-7493.7348632813,-75395.1328125000,-115385.6250000000,-127535.3828125000,-141265.7968750000,,,
0.8759999985,6,-7425.9199218750,-7555.8730468750,-7713.6313476563,-7495.9033203125,-75397.2109375000,-115387.8359375000,-127537.3750000000,-141267.7656250000,,,
0.8799999987,6,-7424.8466796875,-7554.7329101563,-7712.4916992188,-7494.7856445313,-75396.0937500000,-115386.6484375000,-127536.1640625000,-141266.5937500000,,,
0.8839999987,6,-7420.6450195313,-7550.7543945313,-7708.5351562500,-7490.9184570313,-75392.1406250000,-115382.7421875000,-127532.2578125000,-141262.7812500000,,,
0.8879999986,6,-7419.5717773438,-7549.7036132813,-7707.5068359375,-7489.7788085938,-75391.0703125000,-115381.6640625000,-127531.1406250000,-141261.6093750000,,,
0.8919999986,6,-7421.9414062500,-7551.8940429688,-7709.6079101563,-7491.9023437500,-75393.2812500000,-115383.8593750000,-127533.2343750000,-141263.7343750000,,,
0.8959999986,7,-7423.2597656250,-7553.1459960938,-7710.8823242188,-7493.1538085938,-75394.5312500000,-115384.9531250000,-127534.3515625000,-141264.9375000000,,,
0.8999999985,7,-7420.0859375000,-7550.2177734375,-7707.9990234375,-7490.1586914063,-75391.5625000000,-115381.9843750000,-127531.4062500000,-141261.9843750000,,,
0.9039999985,7,-7419.7060546875,-7550.0834960938,-7707.8198242188,-7490.0693359375,-75391.4062500000,-115381.9609375000,-127531.3593750000,-141261.9218750000,,,
0.9079999984,7,-7422.4550781250,-7552.6767578125,-7710.2114257813,-7492.6171875000,-75393.8828125000,-115384.5546875000,-127533.8437500000,-141264.2968750000,,,
0.9119999984,7,-7422.6342773438,-7552.7661132813,-7710.2338867188,-7492.5278320313,-75393.7968750000,-115384.3750000000,-127533.7734375000,-141264.3125000000,,,
0.9159999983,7,-7421.2480468750,-7551.3579101563,-7709.0268554688,-7491.2763671875,-75392.5234375000,-115383.0781250000,-127532.5859375000,-141263.1250000000,,,
0.9199999985,7,-7419.7729492188,-7549.9941406250,-7707.5742187500,-7489.9350585938,-75391.1796875000,-115381.7343750000,-127531.0937500000,-141261.6718750000,,,
0.9239999985,7,-7422.1425781250,-7552.2294921875,-7709.6977539063,-7492.1704101563,-75393.4140625000,-115383.8359375000,-127533.3281250000,-141263.8281250000,,,
0.9279999984,7,-7422.6342773438,-7552.5424804688,-7710.1669921875,-7492.5058593750,-75393.7031250000,-115384.1015625000,-127533.5937500000,-141264.0312500000,,,
0.9319999984,7,-7420.2426757813,-7550.3295898438,-7707.9990234375,-7490.2705078125,-75391.4921875000,-115381.8046875000,-127531.3125000000,-141261.8281250000,,,
0.9359999984,7,-7418.8120117188,-7549.2119140625,-7706.9257812500,-7489.1528320313,-75390.4453125000,-115380.7734375000,-127530.2656250000,-141260.8750000000,,,
0.9399999985,7,-7422.6562500000,-7552.9223632813,-7710.4799804688,-7492.7963867188,-75394.0859375000,-115384.4609375000,-127533.8203125000,-141264.4062500000,,,
0.9439999985,7,-7425.4057617188,-7555.4707031250,-7712.9833984375,-7495.2324218750,-75396.5234375000,-115386.9218750000,-127536.1875000000,-141266.7343750000,,,
0.9479999985,7,-7425.8305664063,-7555.9624023438,-7713.6538085938,-7495.7021484375,-75397.1718750000,-115387.3203125000,-127536.7265625000,-141267.3750000000,,,
0.9519999984,7,-7425.9199218750,-7556.2080078125,-7713.8999023438,-7495.9702148438,-75397.4609375000,-115387.6093750000,-127537.0859375000,-141267.7968750000,,,
0.9559999984,7,-7424.2880859375,-7554.5986328125,-7712.0668945313,-7494.3383789063,-75395.6953125000,-115386.0234375000,-127535.2968750000,-141265.9687500000,,,
0.9599999983,7,-7424.5561523438,-7554.7329101563,-7712.2905273438,-7494.4501953125,-75395.7656250000,-115386.0468750000,-127535.3359375000,-141265.9531250000,,,
0.9639999985,7,-7420.0859375000,-7550.2402343750,-7707.8647460938,-7489.9125976563,-75391.2031250000,-115381.4687500000,-127530.8046875000,-141261.3437500000,,,
0.9679999985,7,-7419.3706054688,-7549.7260742188,-7707.3730468750,-7489.4433593750,-75390.7343750000,-115381.0000000000,-127530.3515625000,-141261.0468750000,,,
0.9719999984,7,-7419.2587890625,-7549.5917968750,-7707.1494140625,-7489.3095703125,-75390.6875000000,-115380.9062500000,-127530.1562500000,-141261.0156250000,,,
0.9759999984,7,-7418.4321289063,-7548.7651367188,-7706.1210937500,-7488.3037109375,-75389.7265625000,-115379.9687500000,-127529.1953125000,-141259.9531250000,,,
0.9799999984,7,-7418.2084960938,-7548.5415039063,-7705.9199218750,-7487.9907226563,-75389.4140625000,-115379.5703125000,-127528.8828125000,-141259.5312500000,,,
0.9839999985,7,-7417.0014648438,-7547.4238281250,-7704.9589843750,-7487.0517578125,-75388.5000000000,-115378.6250000000,-127527.8984375000,-141258.6875000000,,,
0.9879999985,7,-7418.8564453125,-7549.3012695313,-7706.7470703125,-7488.9072265625,-75390.3515625000,-115380.5703125000,-127529.7734375000,-141260.6093750000,,,
0.9919999985,7,-7420.2646484375,-7550.5083007813,-7707.9541015625,-7490.0024414063,-75391.4062500000,-115381.6640625000,-127530.8671875000,-141261.5937500000,,,
0.9959999984,7,-7420.6000976563,-7550.9106445313,-7708.3789062500,-7490.4941406250,-75391.6953125000,-115381.9609375000,-127531.1171875000,-141261.8125000000,,,
0.9999999984,7,-7422.9916992188,-7553.3696289063,-7711.1054687500,-7493.1538085938,-75394.4687500000,-115384.6875000000,-127533.8437500000,-141264.5625000000,,,
1.0039999983,7,-7421.5390625000,-7551.8046875000,-7709.4741210938,-7491.7680664063,-75392.9921875000,-115383.2578125000,-127532.4296875000,-141263.2187500000,,,
1.0079999985,7,-7421.8295898438,-7552.0283203125,-7709.4965820313,-7491.8125000000,-75393.0156250000,-115383.3203125000,-127532.4296875000,-141263.1562500000,,,
1.0119999985,7,-7421.8964843750,-7552.0283203125,-7709.6752929688,-7491.7905273438,-75393.1015625000,-115383.2968750000,-127532.3203125000,-141263.0937500000,,,
1.0159999984,7,-7423.8857421875,-7554.0844726563,-7711.8432617188,-7493.9135742188,-75395.2500000000,-115385.3359375000,-127534.5156250000,-141265.3437500000,,,
1.0199999984,7,-7423.1479492188,-7553.5034179688,-7711.1728515625,-7493.3325195313,-75394.6406250000,-115384.7734375000,-127533.9531250000,-141264.8593750000,,,
1.0239999983,8,-7425.2270507813,-7555.4926757813,-7713.0502929688,-7495.2099609375,-75396.5703125000,-115386.8515625000,-127535.8281250000,-141266.6875000000,,,
1.0279999983,8,-7425.8525390625,-7556.0292968750,-7713.6088867188,-7495.6796875000,-75397.0156250000,-115387.2578125000,-127536.2812500000,-141267.1250000000,,,
1.0319999983,8,-7424.3105468750,-7554.5766601563,-7712.3349609375,-7494.3383789063,-75395.8281250000,-115385.8437500000,-127534.9843750000,-141265.8750000000,,,
1.0359999982,8,-7426.2104492188,-7556.5434570313,-7714.2573242188,-7496.3725585938,-75397.7968750000,-115387.9062500000,-127537.0859375000,-141268.0312500000,,,
1.0399999982,8,-7426.4116210938,-7556.7221679688,-7714.2124023438,-7496.3950195313,-75397.7734375000,-115388.0156250000,-127537.0625000000,-141267.9531250000,,,
1.0439999981,8,-7426.6127929688,-7556.9233398438,-7714.3242187500,-7496.4619140625,-75397.7265625000,-115387.9921875000,-127537.0156250000,-141267.8750000000,,,
1.0479999983,8,-7427.5292968750,-7557.7055664063,-7715.2856445313,-7497.3559570313,-75398.7343750000,-115388.9296875000,-127537.8906250000,-141268.8281250000,,,
1.0519999983,8,-7424.7573242188,-7555.0683593750,-7712.7822265625,-7494.8300781250,-75396.3437500000,-115386.4062500000,-127535.4531250000,-141266.4843750000,,,
1.0559999982,8,-7423.6401367188,-7553.9282226563,-7711.5078125000,-7493.6230468750,-75395.0937500000,-115385.2656250000,-127534.2421875000,-141265.2812500000,,,
1.0599999982,8,-7422.2319335938,-7552.3637695313,-7709.9658203125,-7492.0810546875,-75393.4375000000,-115383.7031250000,-127532.6562500000,-141263.5312500000,,,
1.0639999982,8,-7423.2153320313,-7553.4140625000,-7711.1054687500,-7493.1538085938,-75394.6250000000,-115384.7734375000,-127533.6640625000,-141264.6093750000,,,
1.0679999983,8,-7425.0703125000,-7555.4926757813,-7713.2290039063,-7495.3666992188,-75396.8359375000,-115386.9843750000,-127535.8281250000,-141266.9062500000,,,
1.0719999983,8,-7425.2939453125,-7555.6269531250,-7713.2290039063,-7495.4335937500,-75396.8828125000,-115387.0781250000,-127535.9453125000,-141267.0000000000,,,
1.0759999983,8,-7427.4843750000,-7557.7280273438,-7715.3076171875,-7497.4008789063,-75398.7578125000,-115389.0859375000,-127537.9062500000,-141268.8593750000,,,
1.0799999982,8,-7422.4550781250,-7552.7880859375,-7710.2788085938,-7492.3491210938,-75393.7500000000,-115383.9218750000,-127532.7890625000,-141263.7968750000,,,
1.0839999982,8,-7419.2587890625,-7549.7260742188,-7707.3056640625,-7489.4882812500,-75390.8906250000,-115381.0000000000,-127530.0000000000,-141261.0312500000,,,
1.0879999981,8,-7421.7177734375,-7552.2070312500,-7709.7421875000,-7491.9916992188,-75393.3046875000,-115383.5937500000,-127532.5234375000,-141263.5625000000,,,
1.0919999983,8,-7424.3999023438,-7554.7553710938,-7712.2680664063,-7494.4277343750,-75395.7187500000,-115386.0937500000,-127534.9843750000,-141265.9218750000,,,
1.0959999983,8,-7421.3378906250,-7551.6259765625,-7709.1162109375,-7491.2094726563,-75392.5234375000,-115382.7890625000,-127531.7187500000,-141262.6562500000,,,
1.0999999982,8,-7418.3427734375,-7548.6977539063,-7706.3671875000,-7488.4599609375,-75389.7968750000,-115379.9687500000,-127529.0156250000,-141260.0312500000,,,
1.1039999982,8,-7421.8515625000,-7552.3637695313,-7709.9882812500,-7492.1035156250,-75393.5078125000,-115383.7500000000,-127532.6562500000,-141263.7812500000,,,
1.1079999981,8,-7423.6176757813,-7554.0175781250,-7711.5302734375,-7493.6230468750,-75395.0468750000,-115385.3359375000,-127534.1796875000,-141265.1718750000,,,
1.1119999983,8,-7423.1035156250,-7553.4809570313,-7710.9267578125,-7493.0195312500,-75394.5546875000,-115384.6640625000,-127533.4843750000,-141264.5156250000,,,
1.1159999983,8,-7423.8413085938,-7554.0400390625,-7711.6645507813,-7493.7797851563,-75395.2500000000,-115385.3750000000,-127534.2187500000,-141265.2812500000,,,
1.1199999982,8,-7424.8916015625,-7555.1352539063,-7712.9384765625,-7494.9868164063,-75396.3906250000,-115386.6328125000,-127535.4296875000,-141266.5781250000,,,
1.1239999982,8,-7423.6176757813,-7553.7939453125,-7711.3964843750,-7493.5561523438,-75394.8671875000,-115385.1093750000,-127533.9296875000,-141265.0468750000,,,
1.1279999982,8,-7423.9975585938,-7554.1743164063,-7711.7539062500,-7493.9360351563,-75395.1562500000,-115385.4453125000,-127534.1953125000,-141265.2812500000,,,
1.1319999981,8,-7423.6176757813,-7553.9951171875,-7711.6196289063,-7493.6230468750,-75395.0234375000,-115385.2187500000,-127534.0000000000,-141265.0468750000,,,
1.1359999983,8,-7422.3881835938,-7552.9672851563,-7710.6586914063,-7492.6621093750,-75394.0625000000,-115384.3515625000,-127533.1484375000,-141264.2656250000,,,
1.1399999983,8,-7424.1093750000,-7554.5317382813,-7712.0668945313,-7494.2490234375,-75395.5859375000,-115385.9375000000,-127534.6015625000,-141265.7500000000,,,
1.1439999982,8,-7427.0820312500,-7557.3481445313,-7714.9052734375,-7496.9536132813,-75398.2890625000,-115388.6171875000,-127537.3046875000,-141268.4687500000,,,
1.1479999982,8,-7426.7465820313,-7556.9902343750,-7714.6821289063,-7496.5737304688,-75398.0000000000,-115388.2578125000,-127536.9062500000,-141268.1406250000,,,
1.1519999981,9,-7425.7412109375,-7556.1635742188,-7713.9667968750,-7495.9252929688,-75397.4375000000,-115387.6562500000,-127536.2968750000,-141267.4843750000,,,
1.1559999981,9,-7428.7583007813,-7559.1586914063,-7716.7832031250,-7498.7866210938,-75400.1875000000,-115390.5000000000,-127539.1796875000,-141270.3750000000,,,
1.1599999981,9,-7430.1440429688,-7560.4770507813,-7718.0346679688,-7499.9487304688,-75401.3046875000,-115391.6796875000,-127540.2578125000,-141271.4531250000,,,
1.1639999980,9,-7426.2773437500,-7556.6997070313,-7714.3242187500,-7496.2607421875,-75397.5937500000,-115387.8593750000,-127536.4375000000,-141267.6406250000,,,
1.1679999980,9,-7423.7739257813,-7554.2412109375,-7711.8881835938,-7493.9809570313,-75395.3593750000,-115385.5546875000,-127534.2890625000,-141265.4062500000,,,
1.1719999979,9,-7425.0034179688,-7555.3588867188,-7712.9609375000,-7495.0986328125,-75396.3671875000,-115386.6484375000,-127535.3359375000,-141266.5312500000,,,
1.1759999981,9,-7426.9033203125,-7557.1245117188,-7714.6372070313,-7496.7524414063,-75398.0625000000,-115388.2421875000,-127536.7890625000,-141267.9843750000,,,
1.1799999981,9,-7428.0878906250,-7558.3984375000,-7715.9111328125,-7497.9370117188,-75399.2734375000,-115389.4218750000,-127538.0234375000,-141269.1718750000,,,
1.1839999980,9,-7424.7353515625,-7555.0234375000,-7712.7373046875,-7494.7407226563,-75396.1406250000,-115386.2265625000,-127534.9375000000,-141266.1875000000,,,
1.1879999980,9,-7421.5610351563,-7551.8720703125,-7709.5859375000,-7491.6113281250,-75393.0312500000,-115383.0312500000,-127531.7812500000,-141263.0937500000,,,
1.1919999979,9,-7420.4658203125,-7550.6650390625,-7708.2670898438,-7490.2929687500,-75391.5781250000,-115381.6875000000,-127530.3750000000,-141261.5937500000,,,
1.1959999981,9,-7423.8857421875,-7554.0175781250,-7711.7988281250,-7493.6230468750,-75395.0234375000,-115385.0625000000,-127533.7265625000,-141264.9843750000,,,
1.1999999981,9,-7423.7739257813,-7553.9951171875,-7711.8208007813,-7493.6679687500,-75395.1562500000,-115385.1562500000,-127533.8671875000,-141265.1250000000,,,
1.2039999980,9,-7422.4331054688,-7552.7880859375,-7710.5468750000,-7492.4160156250,-75393.9531250000,-115383.9921875000,-127532.6562500000,-141263.9375000000,,,
1.2079999980,9,-7423.6621093750,-7553.8164062500,-7711.4184570313,-7493.4218750000,-75394.7343750000,-115384.9296875000,-127533.5078125000,-141264.7187500000,,,
1.2119999980,9,-7424.4443359375,-7554.5317382813,-7712.2231445313,-7494.1147460938,-75395.4453125000,-115385.5312500000,-127534.0390625000,-141265.2343750000,,,
1.2159999979,9,-7420.5551757813,-7550.7768554688,-7708.6025390625,-7490.4716796875,-75391.8984375000,-115381.7578125000,-127530.3359375000,-141261.5937500000,,,
1.2199999981,9,-7420.3989257813,-7550.7543945313,-7708.5800781250,-7490.4941406250,-75391.9609375000,-115381.8046875000,-127530.3515625000,-141261.7031250000,,,
1.2239999981,9,-7422.6787109375,-7552.9448242188,-7710.6586914063,-7492.6396484375,-75394.0156250000,-115383.9453125000,-127532.4296875000,-141263.7500000000,,,
1.2279999980,9,-7422.0307617188,-7552.2294921875,-7709.9658203125,-7491.9023437500,-75393.2343750000,-115383.2578125000,-127531.6250000000,-141263.0156250000,,,
1.2319999980,9,-7422.7456054688,-7553.0341796875,-7710.9267578125,-7492.6171875000,-75394.0625000000,-115384.0156250000,-127532.5000000000,-141263.8906250000,,,
1.2359999979,9,-7421.3154296875,-7551.6259765625,-7709.6079101563,-7491.4550781250,-75392.8359375000,-115382.6953125000,-127531.3593750000,-141262.6875000000,,,
1.2399999981,9,-7421.2929687500,-7551.5810546875,-7709.4067382813,-7491.2314453125,-75392.6093750000,-115382.5390625000,-127531.0937500000,-141262.3437500000,,,
1.2439999981,9,-7424.1762695313,-7554.3081054688,-7712.1337890625,-7493.9135742188,-75395.1796875000,-115385.0859375000,-127533.6640625000,-141264.8593750000,,,
1.2479999980,9,-7428.6020507813,-7558.8232421875,-7716.6713867188,-7498.4736328125,-75399.7421875000,-115389.5546875000,-127538.1562500000,-141269.4062500000,,,
1.2519999980,9,-7427.3056640625,-7557.6831054688,-7715.5312500000,-7497.3559570313,-75398.7343750000,-115388.5781250000,-127537.0625000000,-141268.4531250000,,,
1.2559999980,9,-7424.5561523438,-7554.8447265625,-7712.5585937500,-7494.4951171875,-75395.7656250000,-115385.6718750000,-127534.1093750000,-141265.5000000000,,,
1.2599999979,9,-7426.1655273438,-7556.3867187500,-7714.0112304688,-7495.9477539063,-75397.1015625000,-115387.0546875000,-127535.3828125000,-141266.7968750000,,,
1.2639999981,9,-7427.3500976563,-7557.6162109375,-7715.3974609375,-7497.1997070313,-75398.4687500000,-115388.2187500000,-127536.6093750000,-141268.0468750000,,,
1.2679999981,9,-7426.2998046875,-7556.7670898438,-7714.5927734375,-7496.4619140625,-75397.7031250000,-115387.5000000000,-127535.9453125000,-141267.4843750000,,,
1.2719999980,9,-7427.3056640625,-7557.8173828125,-7715.6430664063,-7497.5122070313,-75398.6250000000,-115388.5781250000,-127536.9687500000,-141268.4687500000,,,
1.2759999980,9,-7425.7412109375,-7556.0517578125,-7713.8999023438,-7495.6572265625,-75396.6562500000,-115386.6718750000,-127535.0234375000,-141266.5000000000,,,
1.2799999979,10,-7427.7304687500,-7557.9741210938,-7715.8666992188,-7497.6464843750,-75398.6250000000,-115388.5546875000,-127536.9062500000,-141268.3125000000,,,
1.2839999979,10,-7428.0209960938,-7558.5996093750,-7716.4252929688,-7498.3168945313,-75399.3359375000,-115389.1093750000,-127537.5078125000,-141269.0625000000,,,
1.2879999978,10,-7426.2548828125,-7556.9458007813,-7714.8159179688,-7496.7524414063,-75397.7031250000,-115387.4531250000,-127535.8515625000,-141267.4531250000,,,
1.2919999978,10,-7427.4843750000,-7557.9741210938,-7715.7773437500,-7497.8032226563,-75398.7109375000,-115388.4609375000,-127536.8828125000,-141268.2968750000,,,
1.2959999978,10,-7426.1879882813,-7556.5878906250,-7714.4584960938,-7496.4169921875,-75397.3046875000,-115387.0078125000,-127535.5156250000,-141266.7500000000,,,
1.2999999977,10,-7422.4331054688,-7553.0117187500,-7710.9492187500,-7492.8408203125,-75393.8203125000,-115383.5000000000,-127531.8984375000,-141263.2187500000,,,
1.3039999979,10,-7423.0585937500,-7553.6601562500,-7711.5751953125,-7493.6010742188,-75394.5781250000,-115384.2578125000,-127532.5859375000,-141264.0937500000,,,
1.3079999979,10,-7424.6455078125,-7555.1352539063,-7713.0053710938,-7494.9868164063,-75395.9375000000,-115385.6484375000,-127533.8828125000,-141265.4531250000,,,
1.3119999978,10,-7423.4833984375,-7553.9057617188,-7711.7763671875,-7493.6679687500,-75394.6875000000,-115384.3281250000,-127532.5468750000,-141264.1406250000,,,
1.3159999978,10,-7423.0810546875,-7553.5483398438,-7711.5976562500,-7493.4218750000,-75394.3750000000,-115383.9453125000,-127532.2734375000,-141263.7968750000,,,
1.3199999977,10,-7423.9526367188,-7554.6879882813,-7712.6928710938,-7494.5620117188,-75395.5156250000,-115385.1093750000,-127533.4843750000,-141265.0312500000,,,
1.3239999979,10,-7425.0703125000,-7555.6494140625,-7713.5644531250,-7495.5903320313,-75396.3437500000,-115386.0468750000,-127534.3750000000,-141265.9062500000,,,
1.3279999979,10,-7427.1713867188,-7557.6611328125,-7715.6430664063,-7497.5346679688,-75398.3750000000,-115388.1015625000,-127536.2343750000,-141267.8281250000,,,
1.3319999978,10,-7423.3271484375,-7553.9057617188,-7711.9326171875,-7493.7124023438,-75394.6015625000,-115384.2343750000,-127532.4765625000,-141264.0937500000,,,
1.3359999978,10,-7420.8906250000,-7551.6035156250,-7709.5859375000,-7491.2988281250,-75392.2500000000,-115381.9843750000,-127530.1718750000,-141261.8125000000,,,
1.3399999978,10,-7422.8354492188,-7553.4140625000,-7711.2397460938,-7493.1313476563,-75394.0390625000,-115383.7656250000,-127531.9453125000,-141263.4843750000,,,
1.3439999977,10,-7424.0644531250,-7554.6435546875,-7712.4243164063,-7494.2490234375,-75395.1562500000,-115384.8671875000,-127533.0625000000,-141264.5000000000,,,
1.3479999979,10,-7424.5786132813,-7555.1577148438,-7712.9609375000,-7494.7407226563,-75395.7187500000,-115385.3984375000,-127533.4375000000,-141265.0468750000,,,
1.3519999979,10,-7423.6845703125,-7554.4199218750,-7712.2006835938,-7494.1596679688,-75395.1328125000,-115384.6875000000,-127532.8359375000,-141264.5156250000,,,
1.3559999978,10,-7421.7622070313,-7552.4531250000,-7710.1445312500,-7492.2373046875,-75393.0781250000,-115382.6953125000,-127530.8203125000,-141262.5312500000,,,
1.3599999978,10,-7424.3105468750,-7554.9340820313,-7712.4916992188,-7494.5844726563,-75395.3828125000,-115385.0625000000,-127533.1953125000,-141264.7812500000,,,
1.3639999977,10,-7425.0478515625,-7555.6938476563,-7713.4077148438,-7495.3217773438,-75396.1406250000,-115385.7578125000,-127533.9296875000,-141265.4531250000,,,
1.3679999979,10,-7426.7465820313,-7557.4375000000,-7715.3076171875,-7497.1323242188,-75397.9531250000,-115387.5703125000,-127535.8281250000,-141267.4062500000,,,
1.3719999979,10,-7431.9545898438,-7562.6230468750,-7720.4038085938,-7502.4072265625,-75403.1406250000,-115392.8671875000,-127541.0859375000,-141272.6562500000,,,
1.3759999978,10,-7431.4184570313,-7561.9077148438,-7719.4877929688,-7501.4912109375,-75402.1796875000,-115391.9687500000,-127540.0546875000,-141271.5625000000,,,
1.3799999978,10,-7429.0268554688,-7559.6054687500,-7717.1406250000,-7499.1440429688,-75399.8281250000,-115389.5546875000,-127537.6171875000,-141269.1875000000,,,
1.3839999977,10,-7426.3442382813,-7557.0126953125,-7714.7490234375,-7496.7973632813,-75397.5312500000,-115387.2109375000,-127535.2265625000,-141266.9687500000,,,
1.3879999977,10,-7425.9643554688,-7556.6328125000,-7714.4584960938,-7496.4619140625,-75397.1484375000,-115386.7890625000,-127534.8906250000,-141266.6406250000,,,
1.3919999979,10,-7424.5561523438,-7555.0903320313,-7712.8266601563,-7494.8081054688,-75395.5156250000,-115385.1328125000,-127533.2187500000,-141264.8593750000,,,
1.3959999979,10,-7421.8295898438,-7552.2963867188,-7710.1445312500,-7492.1254882813,-75392.7187500000,-115382.2500000000,-127530.4218750000,-141261.9531250000,,,
1.3999999978,10,-7420.1528320313,-7550.7768554688,-7708.7138671875,-7490.6503906250,-75391.2890625000,-115380.7500000000,-127528.9218750000,-141260.5312500000,,,
1.4039999978,10,-7421.5390625000,-7552.2070312500,-7710.1220703125,-7492.0585937500,-75392.7421875000,-115382.3125000000,-127530.3750000000,-141262.2187500000,,,
1.4079999977,11,-7423.5727539063,-7554.0400390625,-7711.8657226563,-7493.8916015625,-75394.5312500000,-115384.2187500000,-127532.1015625000,-141263.9531250000,,,
1.4119999977,11,-7424.2211914063,-7554.6879882813,-7712.4692382813,-7494.4501953125,-75395.1328125000,-115384.8437500000,-127532.7031250000,-141264.4531250000,,,
1.4159999976,11,-7422.3657226563,-7552.9448242188,-7710.8823242188,-7492.7290039063,-75393.5468750000,-115382.9843750000,-127531.0000000000,-141262.7343750000,,,
1.4199999976,11,-7422.2539062500,-7553.0117187500,-7710.8374023438,-7492.7290039063,-75393.5078125000,-115383.0546875000,-127531.0468750000,-141262.8906250000,,,
1.4239999976,11,-7421.2036132813,-7551.8496093750,-7709.5410156250,-7491.5668945313,-75392.2968750000,-115381.8906250000,-127529.7031250000,-141261.5625000000,,,
1.4279999975,11,-7424.2211914063,-7554.6879882813,-7712.4467773438,-7494.4057617188,-75395.1328125000,-115384.5937500000,-127532.4531250000,-141264.2343750000,,,
1.4319999977,11,-7424.6679687500,-7555.1577148438,-7712.9609375000,-7494.9194335938,-75395.6015625000,-115385.0390625000,-127533.0625000000,-141264.7812500000,,,
1.4359999977,11,-7424.6010742188,-7555.2695312500,-7713.1171875000,-7495.0986328125,-75395.8750000000,-115385.2890625000,-127533.2578125000,-141265.1250000000,,,
1.4399999976,11,-7425.3164062500,-7555.8950195313,-7713.6987304688,-7495.6796875000,-75396.3671875000,-115385.8437500000,-127533.8203125000,-141265.5625000000,,,
1.4439999976,11,-7426.2773437500,-7556.6997070313,-7714.4584960938,-7496.4619140625,-75397.0546875000,-115386.6093750000,-127534.4453125000,-141266.2343750000,,,
1.4479999975,11,-7426.0986328125,-7556.4985351563,-7714.4360351563,-7496.3500976563,-75396.8828125000,-115386.4296875000,-127534.2656250000,-141266.0781250000,,,
1.4519999977,11,-7421.8515625000,-7552.4531250000,-7710.4125976563,-7492.3940429688,-75392.9921875000,-115382.5156250000,-127530.3515625000,-141262.2812500000,,,
1.4559999977,11,-7423.3271484375,-7553.9731445313,-7711.7539062500,-7493.7797851563,-75394.3750000000,-115383.9453125000,-127531.8281250000,-141263.7343750000,,,
1.4599999976,11,-7426.9702148438,-7557.4599609375,-7715.2407226563,-7497.1997070313,-75397.7968750000,-115387.4375000000,-127535.1796875000,-141267.0468750000,,,
1.4639999976,11,-7426.0092773438,-7556.5209960938,-7714.3916015625,-7496.1713867188,-75396.8359375000,-115386.3359375000,-127534.0390625000,-141265.9218750000,,,
1.4679999975,11,-7423.9082031250,-7554.5766601563,-7712.5585937500,-7494.2265625000,-75395.0937500000,-115384.4843750000,-127532.2578125000,-141264.1406250000,,,
1.4719999975,11,-7423.8413085938,-7554.5541992188,-7712.3349609375,-7494.1821289063,-75394.9609375000,-115384.4140625000,-127532.1406250000,-141264.1562500000,,,
1.4759999977,11,-7425.9423828125,-7556.4765625000,-7714.2348632813,-7496.0371093750,-75396.7890625000,-115386.2968750000,-127533.9296875000,-141265.9687500000,,,
1.4799999977,11,-7426.1435546875,-7556.5659179688,-7714.5029296875,-7496.1713867188,-75396.9687500000,-115386.3828125000,-127534.0625000000,-141266.0000000000,,,
1.4839999976,11,-7421.8740234375,-7552.4082031250,-7710.3906250000,-7492.1035156250,-75392.9218750000,-115382.2500000000,-127530.1328125000,-141261.9531250000,,,
1.4879999976,11,-7418.4765625000,-7549.2343750000,-7707.1494140625,-7488.8173828125,-75389.5937500000,-115379.0937500000,-127526.8437500000,-141258.6406250000,,,
1.4919999975,11,-7420.2426757813,-7550.9106445313,-7708.6469726563,-7490.3823242188,-75391.2031250000,-115380.6875000000,-127528.2968750000,-141260.0312500000,,,
1.4959999977,11,-7420.1752929688,-7550.6650390625,-7708.4233398438,-7490.0468750000,-75390.8906250000,-115380.3046875000,-127527.8984375000,-141259.7968750000,,,
1.4999999977,11,-7419.2143554688,-7549.8603515625,-7707.7080078125,-7489.3989257813,-75390.1328125000,-115379.5703125000,-127527.1328125000,-141259.1562500000,,,
1.5039999976,11,-7418.5659179688,-7549.2343750000,-7707.1494140625,-7488.8847656250,-75389.6406250000,-115379.1640625000,-127526.6875000000,-141258.7968750000,,,
1.5079999976,11,-7422.8798828125,-7553.4589843750,-7711.2846679688,-7493.0419921875,-75393.8593750000,-115383.2578125000,-127530.7812500000,-141262.7968750000,,,
1.5119999975,11,-7423.7739257813,-7554.2636718750,-7712.1562500000,-7493.8916015625,-75394.6015625000,-115383.8828125000,-127531.5390625000,-141263.4062500000,,,
1.5159999975,11,-7426.0537109375,-7556.6777343750,-7714.6821289063,-7496.4394531250,-75397.2109375000,-115386.3203125000,-127534.0390625000,-141265.9062500000,,,
1.5199999977,11,-7427.3500976563,-7558.0634765625,-7716.0454101563,-7497.8701171875,-75398.6015625000,-115387.6796875000,-127535.4531250000,-141267.4687500000,,,
1.5239999976,11,-7426.6127929688,-7557.2807617188,-7715.0170898438,-7496.9760742188,-75397.5468750000,-115386.7890625000,-127534.4218750000,-141266.3906250000,,,
1.5279999976,11,-7424.2880859375,-7554.8447265625,-7712.5585937500,-7494.3608398438,-75394.9375000000,-115384.2343750000,-127531.8046875000,-141263.6718750000,,,
1.5319999976,11,-7421.7402343750,-7552.3637695313,-7710.1445312500,-7491.7905273438,-75392.5234375000,-115381.6484375000,-127529.3671875000,-141261.2031250000,,,
1.5359999975,12,-7421.8740234375,-7552.6542968750,-7710.4575195313,-7492.1479492188,-75393.0312500000,-115382.0937500000,-127529.7500000000,-141261.7187500000,,,
1.5399999975,12,-7422.6562500000,-7553.3022460938,-7711.0610351563,-7492.9526367188,-75393.6796875000,-115382.8750000000,-127530.4687500000,-141262.4375000000,,,
1.5439999974,12,-7424.1093750000,-7554.6879882813,-7712.2680664063,-7494.1821289063,-75394.9609375000,-115384.1953125000,-127531.6250000000,-141263.5937500000,,,
1.5479999974,12,-7424.3330078125,-7554.9116210938,-7712.4692382813,-7494.3383789063,-75395.1562500000,-115384.2812500000,-127531.6953125000,-141263.7500000000,,,
1.5519999973,12,-7421.4941406250,-7552.2070312500,-7709.9882812500,-7491.8349609375,-75392.6328125000,-115381.7343750000,-127529.1718750000,-141261.3593750000,,,
1.5559999973,12,-7422.3437500000,-7553.0566406250,-7710.7031250000,-7492.6845703125,-75393.4140625000,-115382.5859375000,-127530.0156250000,-141262.1406250000,,,
1.5599999975,12,-7419.1250000000,-7549.7260742188,-7707.2612304688,-7489.1977539063,-75389.9062500000,-115379.0312500000,-127526.4687500000,-141258.4375000000,,,
1.5639999975,12,-7418.8344726563,-7549.3906250000,-7707.0825195313,-7488.9291992188,-75389.4843750000,-115378.7421875000,-127526.1718750000,-141258.1406250000,,,
1.5679999974,12,-7422.0307617188,-7552.7211914063,-7710.5019531250,-7492.4160156250,-75393.0781250000,-115382.2500000000,-127529.7734375000,-141261.7968750000,,,
1.5719999974,12,-7423.0585937500,-7553.7045898438,-7711.5078125000,-7493.4667968750,-75394.1718750000,-115383.3203125000,-127530.7578125000,-141262.8125000000,,,
1.5759999973,12,-7423.5283203125,-7554.0400390625,-7711.7314453125,-7493.6904296875,-75394.2656250000,-115383.5234375000,-127530.8906250000,-141262.9531250000,,,
1.5799999975,12,-7423.0366210938,-7553.5927734375,-7711.3740234375,-7493.2880859375,-75393.8593750000,-115382.9453125000,-127530.4453125000,-141262.3906250000,,,
1.5839999975,12,-7420.8012695313,-7551.5141601563,-7709.4291992188,-7491.2763671875,-75392.0078125000,-115381.0000000000,-127528.4765625000,-141260.5625000000,,,
1.5879999974,12,-7420.0415039063,-7550.7768554688,-7708.5351562500,-7490.5385742188,-75391.2265625000,-115380.3046875000,-127527.6953125000,-141259.9843750000,,,
1.5919999974,12,-7423.0366210938,-7553.7045898438,-7711.2846679688,-7493.4443359375,-75393.9062500000,-115383.0781250000,-127530.4218750000,-141262.7031250000,,,
1.5959999973,12,-7424.5117187500,-7555.0458984375,-7712.7148437500,-7494.7631835938,-75395.2031250000,-115384.2812500000,-127531.6484375000,-141263.8906250000,,,
1.5999999973,12,-7423.5952148438,-7554.3530273438,-7712.1113281250,-7494.0478515625,-75394.4687500000,-115383.5937500000,-127530.9765625000,-141263.2187500000,,,
1.6039999975,12,-7422.7011718750,-7553.5708007813,-7711.3291015625,-7493.3325195313,-75393.8593750000,-115382.9218750000,-127530.2421875000,-141262.5312500000,,,
1.6079999974,12,-7423.9526367188,-7554.6879882813,-7712.2680664063,-7494.3833007813,-75394.8203125000,-115384.0781250000,-127531.2500000000,-141263.4687500000,,,
1.6119999974,12,-7425.6513671875,-7556.4765625000,-7713.9667968750,-7496.1264648438,-75396.6093750000,-115385.7109375000,-127532.9218750000,-141265.0937500000,,,
1.6159999974,12,-7425.1152343750,-7555.9399414063,-7713.6538085938,-7495.6796875000,-75396.2109375000,-115385.2187500000,-127532.5000000000,-141264.8593750000,,,
1.6199999973,12,-7424.0424804688,-7554.7553710938,-7712.6030273438,-7494.5844726563,-75395.2031250000,-115384.2812500000,-127531.6250000000,-141264.0000000000,,,
1.6239999975,12,-7426.4116210938,-7557.1469726563,-7714.8608398438,-7496.9086914063,-75397.4375000000,-115386.6484375000,-127533.9531250000,-141266.2812500000,,,
1.6279999975,12,-7428.0878906250,-7558.7338867188,-7716.4028320313,-7498.3618164063,-75398.9140625000,-115388.1015625000,-127535.3359375000,-141267.6406250000,,,
1.6319999974,12,-7426.0986328125,-7556.7446289063,-7714.5927734375,-7496.4843750000,-75397.1015625000,-115386.1640625000,-127533.3515625000,-141265.6406250000,,,
1.6359999974,12,-7423.9526367188,-7554.6660156250,-7712.6254882813,-7494.5170898438,-75395.1796875000,-115384.1953125000,-127531.4296875000,-141263.7812500000,,,
1.6399999973,12,-7424.1093750000,-7554.7998046875,-7712.7148437500,-7494.5620117188,-75395.0703125000,-115384.3515625000,-127531.5390625000,-141263.8281250000,,,
1.6439999973,12,-7425.8525390625,-7556.5434570313,-7714.3916015625,-7496.3056640625,-75396.7421875000,-115386.0078125000,-127533.1484375000,-141265.4843750000,,,
1.6479999975,12,-7426.2998046875,-7556.9458007813,-7714.8383789063,-7496.7524414063,-75397.2812500000,-115386.4062500000,-127533.5468750000,-141265.8593750000,,,
1.6519999974,12,-7422.5449218750,-7553.4140625000,-7711.3066406250,-7493.1987304688,-75393.7500000000,-115382.7421875000,-127530.0156250000,-141262.2968750000,,,
1.6559999974,12,-7422.9916992188,-7553.7270507813,-7711.6645507813,-7493.5336914063,-75394.0625000000,-115383.1875000000,-127530.3359375000,-141262.6250000000,,,
1.6599999974,12,-7422.1425781250,-7552.7436523438,-7710.5468750000,-7492.5058593750,-75393.0781250000,-115382.1796875000,-127529.2109375000,-141261.4843750000,,,
1.6639999973,13,-7420.6894531250,-7551.2685546875,-7709.1386718750,-7491.0083007813,-75391.6718750000,-115380.5703125000,-127527.6953125000,-141260.0312500000,,,
1.6679999973,13,-7420.1977539063,-7550.7988281250,-7708.8930664063,-7490.6728515625,-75391.4218750000,-115380.4375000000,-127527.4921875000,-141259.7968750000,,,
1.6719999972,13,-7422.8574218750,-7553.5258789063,-7711.5527343750,-7493.3999023438,-75394.1093750000,-115383.2109375000,-127530.3125000000,-141262.7031250000,,,
1.6759999972,13,-7424.2880859375,-7554.8447265625,-7712.8266601563,-7494.6738281250,-75395.2734375000,-115384.4375000000,-127531.4687500000,-141263.8437500000,,,
1.6799999971,13,-7424.8247070313,-7555.3139648438,-7713.4301757813,-7495.1655273438,-75395.8281250000,-115384.8671875000,-127531.8984375000,-141264.3437500000,,,
1.6839999971,13,-7421.6503906250,-7552.2963867188,-7710.3906250000,-7492.0585937500,-75392.8750000000,-115381.8437500000,-127528.8984375000,-141261.3906250000,,,
1.6879999973,13,-7419.8623046875,-7550.5756835938,-7708.6469726563,-7490.3823242188,-75391.2265625000,-115380.1250000000,-127527.2500000000,-141259.7343750000,,,
1.6919999972,13,-7420.0859375000,-7550.7319335938,-7708.5576171875,-7490.4047851563,-75391.2265625000,-115380.1484375000,-127527.2890625000,-141259.5781250000,,,
1.6959999972,13,-7420.1977539063,-7550.8437500000,-7708.6245117188,-7490.5385742188,-75391.2500000000,-115380.2343750000,-127527.3593750000,-141259.6718750000,,,
1.6999999972,13,-7419.1250000000,-7549.8603515625,-7707.8198242188,-7489.6220703125,-75390.4218750000,-115379.3906250000,-127526.4687500000,-141258.8125000000,,,
1.7039999971,13,-7418.8564453125,-7549.7260742188,-7707.6411132813,-7489.5327148438,-75390.3984375000,-115379.3437500000,-127526.4687500000,-141258.9531250000,,,
1.7079999973,13,-7422.9248046875,-7553.6376953125,-7711.3964843750,-7493.4443359375,-75394.2421875000,-115383.2578125000,-127530.2421875000,-141262.7343750000,,,
1.7119999973,13,-7423.5502929688,-7554.0400390625,-7711.9550781250,-7493.8916015625,-75394.7109375000,-115383.6562500000,-127530.7109375000,-141263.0625000000,,,
1.7159999972,13,-7424.7353515625,-7555.2246093750,-7713.3183593750,-7495.1655273438,-75395.9609375000,-115384.8203125000,-127532.0078125000,-141264.4062500000,,,
1.7199999972,13,-7425.6069335938,-7556.2080078125,-7714.3242187500,-7496.2607421875,-75396.9921875000,-115385.9843750000,-127533.1484375000,-141265.5937500000,,,
1.7239999971,13,-7426.0537109375,-7556.4985351563,-7714.5703125000,-7496.4843750000,-75397.2812500000,-115386.3828125000,-127533.2812500000,-141265.8750000000,,,
1.7279999971,13,-7424.6679687500,-7555.0009765625,-7713.0727539063,-7494.9643554688,-75395.7656250000,-115384.7734375000,-127531.7187500000,-141264.2656250000,,,
1.7319999973,13,-7422.1645507813,-7552.6093750000,-7710.7031250000,-7492.5278320313,-75393.3515625000,-115382.2968750000,-127529.2578125000,-141261.7656250000,,,
1.7359999972,13,-7420.4882812500,-7551.0449218750,-7709.1835937500,-7491.0976562500,-75391.9140625000,-115380.9062500000,-127527.8984375000,-141260.5625000000,,,
1.7399999972,13,-7422.5000000000,-7552.9672851563,-7711.1054687500,-7493.0644531250,-75393.7968750000,-115382.8515625000,-127529.8437500000,-141262.4375000000,,,
1.7439999972,13,-7426.4785156250,-7556.9902343750,-7715.0170898438,-7496.8642578125,-75397.6875000000,-115386.6953125000,-127533.6640625000,-141266.1562500000,,,
1.7479999971,13,-7424.2436523438,-7554.6879882813,-7712.7822265625,-7494.6069335938,-75395.4921875000,-115384.3046875000,-127531.2734375000,-141263.7968750000,,,
1.7519999973,13,-7420.9355468750,-7551.5141601563,-7709.6528320313,-7491.6113281250,-75392.4062500000,-115381.2656250000,-127528.2500000000,-141260.8281250000,,,
1.7559999973,13,-7421.2705078125,-7551.8046875000,-7709.9433593750,-7491.9467773438,-75392.6796875000,-115381.7109375000,-127528.6796875000,-141261.2031250000,,,
1.7599999972,13,-7423.2377929688,-7553.7045898438,-7711.7539062500,-7493.6904296875,-75394.3750000000,-115383.4296875000,-127530.3125000000,-141262.9062500000,,,
1.7639999972,13,-7424.8916015625,-7555.3139648438,-7713.3857421875,-7495.1879882813,-75396.1406250000,-115384.9765625000,-127531.8281250000,-141264.4687500000,,,
1.7679999971,13,-7426.1655273438,-7556.9008789063,-7715.0170898438,-7496.8642578125,-75397.7734375000,-115386.6484375000,-127533.6171875000,-141266.2656250000,,,
1.7719999971,13,-7429.1386718750,-7559.8066406250,-7717.8110351563,-7499.8369140625,-75400.6328125000,-115389.6484375000,-127536.4531250000,-141269.1718750000,,,
1.7759999973,13,-7432.1113281250,-7562.6230468750,-7720.5380859375,-7502.5190429688,-75403.3828125000,-115392.4218750000,-127539.0468750000,-141271.8750000000,,,
1.7799999972,13,-7430.4794921875,-7560.8574218750,-7718.8842773438,-7500.7309570313,-75401.5546875000,-115390.4765625000,-127537.2421875000,-141270.0312500000,,,
1.7839999972,13,-7429.7197265625,-7560.1420898438,-7718.3251953125,-7500.0830078125,-75401.0625000000,-115389.8046875000,-127536.6328125000,-141269.4062500000,,,
1.7879999971,13,-7431.7758789063,-7562.3994140625,-7720.4936523438,-7502.3403320313,-75403.2500000000,-115392.0625000000,-127538.9140625000,-141271.6718750000,,,
1.7919999971,14,-7431.3735351563,-7561.8632812500,-7719.9121093750,-7501.8041992188,-75402.6015625000,-115391.5000000000,-127538.2421875000,-141271.0156250000,,,
1.7959999971,14,-7428.4677734375,-7558.9350585938,-7716.9619140625,-7498.8085937500,-75399.5156250000,-115388.5546875000,-127535.1796875000,-141267.9218750000,,,
1.7999999970,14,-7427.3500976563,-7557.9960937500,-7716.0903320313,-7497.9145507813,-75398.6250000000,-115387.5468750000,-127534.3515625000,-141267.0625000000,,,
1.8039999970,14,-7424.6010742188,-7555.2470703125,-7713.4077148438,-7495.2548828125,-75396.0312500000,-115384.8671875000,-127531.8046875000,-141264.5156250000,,,
1.8079999969,14,-7426.5454101563,-7557.0576171875,-7715.1289062500,-7497.0878906250,-75397.7734375000,-115386.6718750000,-127533.4140625000,-141266.1718750000,,,
1.8119999969,14,-7422.9916992188,-7553.4589843750,-7711.4409179688,-7493.3325195313,-75394.0625000000,-115382.9218750000,-127529.5703125000,-141262.2656250000,,,
1.8159999971,14,-7421.9858398438,-7552.5200195313,-7710.6586914063,-7492.4609375000,-75393.1484375000,-115381.8437500000,-127528.6328125000,-141261.3593750000,,,
1.8199999970,14,-7423.9975585938,-7554.7104492188,-7712.8940429688,-7494.6289062500,-75395.4687500000,-115384.1718750000,-127530.9765625000,-141263.7187500000,,,
1.8239999970,14,-7423.6401367188,-7554.1962890625,-7712.2905273438,-7494.0927734375,-75394.9140625000,-115383.7031250000,-127530.3750000000,-141263.0625000000,,,
1.8279999970,14,-7425.6069335938,-7556.0292968750,-7714.0561523438,-7495.8583984375,-75396.6093750000,-115385.3984375000,-127532.1015625000,-141264.7343750000,,,
1.8319999969,14,-7427.6630859375,-7558.1079101563,-7716.2016601563,-7498.1157226563,-75398.8046875000,-115387.4531250000,-127534.3359375000,-141267.0156250000,,,
1.8359999971,14,-7425.4501953125,-7556.1411132813,-7714.2573242188,-7496.1489257813,-75396.8828125000,-115385.5546875000,-127532.4296875000,-141265.1875000000,,,
1.8399999971,14,-7427.6855468750,-7558.4208984375,-7716.3583984375,-7498.4736328125,-75399.0703125000,-115387.8125000000,-127534.5781250000,-141267.2968750000,,,
1.8439999970,14,-7426.1210937500,-7556.7890625000,-7714.6596679688,-7496.7080078125,-75397.2812500000,-115386.0234375000,-127532.7656250000,-141265.4062500000,,,
1.8479999970,14,-7425.9423828125,-7556.6328125000,-7714.6147460938,-7496.4843750000,-75397.1015625000,-115385.7812500000,-127532.6093750000,-141265.1718750000,,,
1.8519999969,14,-7424.4443359375,-7555.2470703125,-7713.3408203125,-7495.2998046875,-75395.9218750000,-115384.5078125000,-127531.3828125000,-141264.0781250000,,,
1.8559999969,14,-7421.3154296875,-7552.0952148438,-7710.0551757813,-7492.1479492188,-75392.7031250000,-115381.3984375000,-127528.2343750000,-141260.9218750000,,,
1.8599999971,14,-7420.4213867188,-7551.0893554688,-7708.8706054688,-7491.0302734375,-75391.5625000000,-115380.1953125000,-127526.9375000000,-141259.5937500000,,,
1.8639999970,14,-7423.0585937500,-7553.7045898438,-7711.6870117188,-7493.6679687500,-75394.2421875000,-115382.8046875000,-127529.4843750000,-141262.2187500000,,,
1.8679999970,14,-7422.4775390625,-7553.2578125000,-7711.3964843750,-7493.3325195313,-75393.9296875000,-115382.4296875000,-127529.1953125000,-141261.9843750000,,,
1.8719999969,14,-7417.7836914063,-7548.7202148438,-7706.7026367188,-7488.7504882813,-75389.2812500000,-115377.8906250000,-127524.5625000000,-141257.3593750000,,,
1.8759999969,14,-7418.4765625000,-7549.2792968750,-7707.1494140625,-7489.2197265625,-75389.6796875000,-115378.4062500000,-127524.9453125000,-141257.7968750000,,,
1.8799999971,14,-7420.3320312500,-7550.9555664063,-7708.9824218750,-7491.0083007813,-75391.3828125000,-115379.9921875000,-127526.6250000000,-141259.4218750000,,,
1.8839999971,14,-7420.9799804688,-7551.6259765625,-7709.8764648438,-7491.8349609375,-75392.2500000000,-115380.7968750000,-127527.5156250000,-141260.3437500000,,,
1.8879999970,14,-7423.3271484375,-7554.0175781250,-7712.2456054688,-7494.2714843750,-75394.7578125000,-115383.3203125000,-127530.0390625000,-141262.9375000000,,,
1.8919999970,14,-7426.3666992188,-7556.9233398438,-7714.9726562500,-7497.1547851563,-75397.5078125000,-115386.1171875000,-127532.7031250000,-141265.6093750000,,,
1.8959999969,14,-7425.8525390625,-7556.3647460938,-7714.4135742188,-7496.5961914063,-75396.8828125000,-115385.4921875000,-127532.0312500000,-141264.8125000000,,,
1.8999999969,14,-7423.9306640625,-7554.6435546875,-7712.7597656250,-7494.8750000000,-75395.2500000000,-115383.7265625000,-127530.3125000000,-141263.0937500000,,,
1.9039999971,14,-7421.8964843750,-7552.6318359375,-7710.8374023438,-7492.8857421875,-75393.3906250000,-115381.8203125000,-127528.4531250000,-141261.2812500000,,,
1.9079999970,14,-7421.8740234375,-7552.4531250000,-7710.5019531250,-7492.7070312500,-75393.1250000000,-115381.6484375000,-127528.1406250000,-141261.0312500000,,,
1.9119999970,14,-7422.4775390625,-7552.8779296875,-7711.0385742188,-7493.1313476563,-75393.5703125000,-115382.0468750000,-127528.5234375000,-141261.3906250000,,,
1.9159999969,14,-7423.2822265625,-7553.7045898438,-7712.0219726563,-7494.0703125000,-75394.5781250000,-115382.8750000000,-127529.4609375000,-141262.2812500000,,,
1.9199999969,15,-7427.5737304688,-7558.1528320313,-7716.4477539063,-7498.4736328125,-75399.0234375000,-115387.4531250000,-127533.9062500000,-141266.7968750000,,,
1.9239999969,15,-7429.9877929688,-7560.5668945313,-7718.7275390625,-7500.8203125000,-75401.3046875000,-115389.8046875000,-127536.2343750000,-141269.0625000000,,,
1.9279999968,15,-7427.6411132813,-7558.1528320313,-7716.2016601563,-7498.4287109375,-75398.6640625000,-115387.0546875000,-127533.5703125000,-141266.3125000000,,,
1.9319999968,15,-7425.0478515625,-7555.5151367188,-7713.6987304688,-7495.9702148438,-75396.1171875000,-115384.3984375000,-127530.9609375000,-141263.6875000000,,,
1.9359999967,15,-7426.2548828125,-7556.6997070313,-7715.0844726563,-7497.3334960938,-75397.5312500000,-115385.9375000000,-127532.3671875000,-141265.2812500000,,,
1.9399999967,15,-7429.7866210938,-7560.2539062500,-7718.5488281250,-7500.8203125000,-75400.9453125000,-115389.4687500000,-127535.8515625000,-141268.7343750000,,,
1.9439999969,15,-7430.0546875000,-7560.4770507813,-7718.6606445313,-7500.9096679688,-75400.9921875000,-115389.5156250000,-127535.8984375000,-141268.6562500000,,,
1.9479999968,15,-7426.6127929688,-7557.1020507813,-7715.2407226563,-7497.4677734375,-75397.7031250000,-115385.8906250000,-127532.4296875000,-141265.1406250000,,,
1.9519999968,15,-7425.0478515625,-7555.5820312500,-7713.8549804688,-7496.0820312500,-75396.3906250000,-115384.6875000000,-127531.0468750000,-141263.9531250000,,,
1.9559999967,15,-7429.1831054688,-7559.6503906250,-7717.9228515625,-7500.2617187500,-75400.3437500000,-115388.8437500000,-127535.1562500000,-141267.9843750000,,,
1.9599999967,15,-7428.4453125000,-7558.8901367188,-7717.0961914063,-7499.3227539063,-75399.4531250000,-115387.9062500000,-127534.1562500000,-141266.9062500000,,,
1.9639999969,15,-7425.2045898438,-7555.7163085938,-7713.9443359375,-7496.0371093750,-75396.2500000000,-115384.5078125000,-127530.8203125000,-141263.6406250000,,,
1.9679999969,15,-7422.6342773438,-7553.2578125000,-7711.4409179688,-7493.6679687500,-75393.8359375000,-115382.0703125000,-127528.4765625000,-141261.3593750000,,,
1.9719999968,15,-7424.4223632813,-7555.0458984375,-7713.2963867188,-7495.5678710938,-75395.8046875000,-115384.0390625000,-127530.4453125000,-141263.3281250000,,,
1.9759999968,15,-7426.1210937500,-7556.6997070313,-7714.8608398438,-7496.9760742188,-75397.2812500000,-115385.5312500000,-127531.9218750000,-141264.7031250000,,,
1.9799999967,15,-7423.2822265625,-7553.8164062500,-7712.0444335938,-7494.0253906250,-75394.2421875000,-115382.4687500000,-127528.8984375000,-141261.6406250000,,,
1.9839999967,15,-7421.7402343750,-7552.4082031250,-7710.6586914063,-7492.7514648438,-75392.8125000000,-115381.1796875000,-127527.5156250000,-141260.4687500000,,,
1.9879999969,15,-7421.6503906250,-7552.4082031250,-7710.5468750000,-7492.7514648438,-75392.8750000000,-115381.1953125000,-127527.5859375000,-141260.5781250000,,,
1.9919999968,15,-7422.6562500000,-7553.3696289063,-7711.3964843750,-7493.6455078125,-75393.6796875000,-115382.0703125000,-127528.4062500000,-141261.2031250000,,,
1.9959999968,15,-7424.0644531250,-7554.7553710938,-7712.8041992188,-7495.0092773438,-75395.0234375000,-115383.2968750000,-127529.6640625000,-141262.3906250000,,,
1.9999999967,15,-7420.6225585938,-7551.3354492188,-7709.4516601563,-7491.6787109375,-75391.7578125000,-115379.8984375000,-127526.3515625000,-141259.1250000000,,,
2.0039999967,15,-7417.8955078125,-7548.6757812500,-7706.9257812500,-7489.1303710938,-75389.2343750000,-115377.3984375000,-127523.7812500000,-141256.7187500000,,,
2.0079999969,15,-7420.8237304688,-7551.4472656250,-7709.6528320313,-7491.8125000000,-75391.8750000000,-115380.1718750000,-127526.4453125000,-141259.3593750000,,,
2.0119999968,15,-7423.8857421875,-7554.4199218750,-7712.6254882813,-7494.6289062500,-75394.6875000000,-115383.0078125000,-127529.3281250000,-141262.0781250000,,,
2.0159999968,15,-7424.1538085938,-7554.7104492188,-7712.9609375000,-7495.0092773438,-75395.0468750000,-115383.2578125000,-127529.5703125000,-141262.3906250000,,,
2.0199999968,15,-7423.1259765625,-7553.8164062500,-7712.1113281250,-7494.1372070313,-75394.2890625000,-115382.4296875000,-127528.7890625000,-141261.6562500000,,,
2.0239999967,15,-7425.2270507813,-7555.9399414063,-7714.1005859375,-7496.2158203125,-75396.2968750000,-115384.5546875000,-127530.7578125000,-141263.7187500000,,,
2.0279999967,15,-7427.2387695313,-7557.9960937500,-7716.0454101563,-7498.1606445313,-75398.3125000000,-115386.5625000000,-127532.7500000000,-141265.5625000000,,,
2.0319999969,15,-7425.7412109375,-7556.4985351563,-7714.6147460938,-7496.6855468750,-75396.8359375000,-115385.0000000000,-127531.2031250000,-141264.0000000000,,,
2.0359999968,15,-7425.8305664063,-7556.6997070313,-7714.8383789063,-7496.8642578125,-75397.0781250000,-115385.3125000000,-127531.5390625000,-141264.4062500000,,,
2.0399999968,15,-7424.8247070313,-7555.5820312500,-7713.6987304688,-7495.8134765625,-75395.8750000000,-115384.3046875000,-127530.3984375000,-141263.4062500000,,,
2.0439999967,15,-7425.7412109375,-7556.3198242188,-7714.4135742188,-7496.4843750000,-75396.5859375000,-115384.9765625000,-127531.0468750000,-141264.0000000000,,,
2.0479999967,16,-7424.0644531250,-7554.6879882813,-7712.8940429688,-7494.8525390625,-75395.0234375000,-115383.2109375000,-127529.3671875000,-141262.3437500000,,,
2.0519999966,16,-7423.3940429688,-7554.1293945313,-7712.3574218750,-7494.3833007813,-75394.6015625000,-115382.7656250000,-127528.8828125000,-141261.8750000000,,,
2.0559999966,16,-7424.0424804688,-7554.7553710938,-7712.8491210938,-7494.9643554688,-75395.3125000000,-115383.3437500000,-127529.4843750000,-141262.4687500000,,,
2.0599999966,16,-7425.4057617188,-7556.0961914063,-7714.0112304688,-7496.1938476563,-75396.4062500000,-115384.4609375000,-127530.6015625000,-141263.5625000000,,,
2.0639999965,16,-7426.5234375000,-7557.1694335938,-7715.0844726563,-7497.2441406250,-75397.4843750000,-115385.5312500000,-127531.6093750000,-141264.5781250000,,,
2.0679999965,16,-7423.3940429688,-7554.1962890625,-7712.2231445313,-7494.3608398438,-75394.7109375000,-115382.6953125000,-127528.8593750000,-141261.8125000000,,,
2.0719999967,16,-7421.7846679688,-7552.5200195313,-7710.5468750000,-7492.7739257813,-75393.0312500000,-115381.0625000000,-127527.2500000000,-141260.2187500000,,,
2.0759999966,16,-7422.9916992188,-7553.5927734375,-7711.5302734375,-7493.7124023438,-75393.9531250000,-115382.1406250000,-127528.1406250000,-141261.1718750000,,,
2.0799999966,16,-7423.1479492188,-7553.7939453125,-7711.7539062500,-7493.7797851563,-75394.1562500000,-115382.2031250000,-127528.1171875000,-141261.1250000000,,,
2.0839999965,16,-7423.6176757813,-7554.4423828125,-7712.4916992188,-7494.5620117188,-75394.9375000000,-115382.8750000000,-127528.8593750000,-141261.8750000000,,,
2.0879999965,16,-7425.0034179688,-7555.9174804688,-7713.8999023438,-7496.1489257813,-75396.4296875000,-115384.2343750000,-127530.3750000000,-141263.4843750000,,,
2.0919999967,16,-7424.7573242188,-7555.5375976563,-7713.2739257813,-7495.5678710938,-75395.8046875000,-115383.8828125000,-127529.7031250000,-141262.9375000000,,,
2.0959999966,16,-7422.0307617188,-7552.7211914063,-7710.4575195313,-7492.7290039063,-75392.9687500000,-115381.0625000000,-127526.8437500000,-141259.8750000000,,,
2.0999999966,16,-7421.6728515625,-7552.4082031250,-7710.3681640625,-7492.5952148438,-75392.7656250000,-115380.7265625000,-127526.6875000000,-141259.6406250000,,,
2.1039999966,16,-7422.4775390625,-7553.4589843750,-7711.3740234375,-7493.5786132813,-75393.8593750000,-115381.8671875000,-127527.8515625000,-141260.9218750000,,,
2.1079999965,16,-7421.6953125000,-7552.6318359375,-7710.3681640625,-7492.6171875000,-75392.8593750000,-115380.9531250000,-127526.8437500000,-141259.9531250000,,,
2.1119999965,16,-7422.9467773438,-7553.8613281250,-7711.5527343750,-7493.6904296875,-75393.9062500000,-115381.9375000000,-127527.8046875000,-141260.9218750000,,,
2.1159999967,16,-7424.5341796875,-7555.4926757813,-7713.3408203125,-7495.2998046875,-75395.6484375000,-115383.5468750000,-127529.4609375000,-141262.6250000000,,,
2.1199999966,16,-7421.5390625000,-7552.5869140625,-7710.4125976563,-7492.4833984375,-75392.8359375000,-115380.7968750000,-127526.6875000000,-141259.9843750000,,,
2.1239999966,16,-7420.8461914063,-7551.8496093750,-7709.4965820313,-7491.7011718750,-75392.0703125000,-115379.8828125000,-127525.7734375000,-141258.9687500000,,,
2.1279999965,16,-7421.1586914063,-7552.0732421875,-7709.7646484375,-7491.9243164063,-75392.1640625000,-115380.0546875000,-127525.8203125000,-141258.9218750000,,,
2.1319999965,16,-7421.9414062500,-7552.7880859375,-7710.6586914063,-7492.6845703125,-75392.9218750000,-115380.7500000000,-127526.6250000000,-141259.7187500000,,,
2.1359999967,16,-7419.6166992188,-7550.6650390625,-7708.5576171875,-7490.5610351563,-75390.9531250000,-115378.7656250000,-127524.6562500000,-141257.9218750000,,,
2.1399999966,16,-7419.4379882813,-7550.3520507813,-7708.2001953125,-7490.3823242188,-75390.7343750000,-115378.5625000000,-127524.2734375000,-141257.6093750000,,,
2.1439999966,16,-7422.9023437500,-7553.6821289063,-7711.4858398438,-7493.6679687500,-75393.8828125000,-115381.7343750000,-127527.5625000000,-141260.6718750000,,,
2.1479999966,16,-7420.4658203125,-7551.2905273438,-7709.0942382813,-7491.2094726563,-75391.3593750000,-115379.2109375000,-127525.1250000000,-141258.1406250000,,,
2.1519999965,16,-7419.5717773438,-7550.4638671875,-7708.4233398438,-7490.5385742188,-75390.7734375000,-115378.4453125000,-127524.4296875000,-141257.5625000000,,,
2.1559999965,16,-7420.1528320313,-7551.1791992188,-7708.9824218750,-7491.1870117188,-75391.3359375000,-115379.1171875000,-127525.0546875000,-141258.2812500000,,,
2.1599999967,16,-7423.0366210938,-7553.9951171875,-7711.7539062500,-7494.0034179688,-75394.0390625000,-115381.9843750000,-127527.7187500000,-141260.9843750000,,,
2.1639999966,16,-7426.6127929688,-7557.5043945313,-7715.2856445313,-7497.4453125000,-75397.6171875000,-115385.2656250000,-127531.2031250000,-141264.3906250000,,,
2.1679999966,16,-7423.2822265625,-7554.3305664063,-7712.2680664063,-7494.3383789063,-75394.6875000000,-115382.1406250000,-127528.1875000000,-141261.3593750000,,,
2.1719999965,16,-7422.2763671875,-7553.4140625000,-7711.3515625000,-7493.4667968750,-75393.7500000000,-115381.4687500000,-127527.4062500000,-141260.5312500000,,,
2.1759999965,17,-7425.6069335938,-7556.5878906250,-7714.3466796875,-7496.4843750000,-75396.7656250000,-115384.5312500000,-127530.3515625000,-141263.5312500000,,,
2.1799999964,17,-7424.8466796875,-7555.7832031250,-7713.4975585938,-7495.5678710938,-75395.8750000000,-115383.5937500000,-127529.3046875000,-141262.5781250000,,,
2.1839999964,17,-7423.3715820313,-7554.4199218750,-7712.1562500000,-7494.2490234375,-75394.6875000000,-115382.2968750000,-127528.1171875000,-141261.3906250000,,,
2.1879999964,17,-7423.8413085938,-7554.9790039063,-7712.7148437500,-7494.8300781250,-75395.2734375000,-115382.9453125000,-127528.7890625000,-141261.9843750000,,,
2.1919999963,17,-7426.3442382813,-7557.2363281250,-7714.9052734375,-7497.1098632813,-75397.4843750000,-115385.2031250000,-127530.8906250000,-141264.1093750000,,,
2.1959999963,17,-7429.6523437500,-7560.5219726563,-7718.1464843750,-7500.3735351563,-75400.6562500000,-115388.3750000000,-127534.0234375000,-141267.2187500000,,,
2.1999999965,17,-7428.6689453125,-7559.6279296875,-7717.3642578125,-7499.5463867188,-75399.8281250000,-115387.3906250000,-127533.1250000000,-141266.4687500000,,,
2.2039999964,17,-7425.1376953125,-7556.3198242188,-7713.9667968750,-7496.2382812500,-75396.5468750000,-115384.1953125000,-127529.8593750000,-141263.2812500000,,,
2.2079999964,17,-7422.9692382813,-7553.9506835938,-7711.5078125000,-7493.7573242188,-75394.0156250000,-115381.8046875000,-127527.4062500000,-141260.7812500000,,,
2.2119999963,17,-7423.9975585938,-7554.9116210938,-7712.4916992188,-7494.6289062500,-75394.8203125000,-115382.6093750000,-127528.1875000000,-141261.5625000000,,,
2.2159999963,17,-7421.9414062500,-7553.0341796875,-7710.7031250000,-7492.8183593750,-75393.0312500000,-115380.7265625000,-127526.3515625000,-141259.6875000000,,,
2.2199999965,17,-7421.2036132813,-7552.5200195313,-7710.1894531250,-7492.3715820313,-75392.7031250000,-115380.2812500000,-127526.0625000000,-141259.4062500000,,,
2.2239999964,17,-7424.4223632813,-7555.6494140625,-7713.1845703125,-7495.3666992188,-75395.7187500000,-115383.3906250000,-127529.0390625000,-141262.4218750000,,,
2.2279999964,17,-7425.1596679688,-7556.2304687500,-7713.6088867188,-7495.8134765625,-75396.0937500000,-115383.8125000000,-127529.3281250000,-141262.7812500000,,,
2.2319999964,17,-7422.2763671875,-7553.3696289063,-7710.9492187500,-7492.9975585938,-75393.3515625000,-115381.0156250000,-127526.4453125000,-141260.0312500000,,,
2.2359999963,17,-7423.9306640625,-7555.1577148438,-7712.8715820313,-7494.8750000000,-75395.3125000000,-115382.9453125000,-127528.4765625000,-141262.0781250000,,,
2.2399999963,17,-7424.8247070313,-7555.9399414063,-7713.6088867188,-7495.7465820313,-75396.0078125000,-115383.7265625000,-127529.3671875000,-141262.8125000000,,,
2.2439999965,17,-7426.2773437500,-7557.3256835938,-7714.8833007813,-7496.9760742188,-75397.2578125000,-115384.9765625000,-127530.5546875000,-141263.8906250000,,,
2.2479999964,17,-7425.0034179688,-7556.0517578125,-7713.6762695313,-7495.6796875000,-75396.0546875000,-115383.6328125000,-127529.0781250000,-141262.5312500000,,,
2.2519999964,17,-7422.3437500000,-7553.4809570313,-7711.2172851563,-7493.2656250000,-75393.6640625000,-115381.2421875000,-127526.7343750000,-141260.2656250000,,,
2.2559999963,17,-7422.3657226563,-7553.4589843750,-7711.0610351563,-7493.2880859375,-75393.6171875000,-115381.2890625000,-127526.7812500000,-141260.2656250000,,,
2.2599999963,17,-7422.6118164063,-7553.7045898438,-7711.2397460938,-7493.3999023438,-75393.7031250000,-115381.3359375000,-127526.8906250000,-141260.2187500000,,,
2.2639999965,17,-7422.9023437500,-7553.9731445313,-7711.5302734375,-7493.5786132813,-75394.0625000000,-115381.4921875000,-127527.0703125000,-141260.3750000000,,,
2.2679999964,17,-7421.5834960938,-7552.7661132813,-7710.4799804688,-7492.4160156250,-75393.0156250000,-115380.3750000000,-127525.9921875000,-141259.4218750000,,,
2.2719999964,17,-7422.4331054688,-7553.6601562500,-7711.3291015625,-7493.3549804688,-75393.9296875000,-115381.3359375000,-127526.8671875000,-141260.4531250000,,,
2.2759999963,17,-7424.5117187500,-7555.6044921875,-7713.1621093750,-7495.2324218750,-75395.6484375000,-115383.2109375000,-127528.6328125000,-141262.0625000000,,,
2.2799999963,17,-7422.0527343750,-7553.1459960938,-7710.7031250000,-7492.7514648438,-75393.0781250000,-115380.6171875000,-127526.0625000000,-141259.4843750000,,,
2.2839999963,17,-7422.9467773438,-7554.0844726563,-7711.7539062500,-7493.8022460938,-75394.2890625000,-115381.6875000000,-127527.2265625000,-141260.7187500000,,,
2.2879999964,17,-7422.1645507813,-7553.3471679688,-7711.0385742188,-7493.0869140625,-75393.6171875000,-115381.0625000000,-127526.5546875000,-141260.1093750000,,,
2.2919999964,17,-7424.8466796875,-7556.0517578125,-7713.6538085938,-7495.7465820313,-75396.1171875000,-115383.8125000000,-127529.1250000000,-141262.6562500000,,,
2.2959999964,17,-7425.7187500000,-7556.7670898438,-7714.3466796875,-7496.3276367188,-75396.7890625000,-115384.3281250000,-127529.6406250000,-141263.2500000000,,,
2.2999999963,17,-7423.7070312500,-7554.7104492188,-7712.4018554688,-7494.3159179688,-75394.8906250000,-115382.3125000000,-127527.6953125000,-141261.2343750000,,,
2.3039999963,18,-7419.3481445313,-7550.4638671875,-7708.3115234375,-7490.2036132813,-75390.8671875000,-115378.2031250000,-127523.6718750000,-141257.2343750000,,,
2.3079999962,18,-7421.9414062500,-7553.1010742188,-7710.7255859375,-7492.7514648438,-75393.2578125000,-115380.7265625000,-127526.1953125000,-141259.7187500000,,,
2.3119999962,18,-7425.0034179688,-7556.2080078125,-7713.8100585938,-7495.6796875000,-75396.1640625000,-115383.6562500000,-127529.1953125000,-141262.5312500000,,,
2.3159999961,18,-7421.4716796875,-7552.6318359375,-7710.3681640625,-7492.2373046875,-75392.6796875000,-115380.0546875000,-127525.5703125000,-141259.0625000000,,,
2.3199999961,18,-7424.1093750000,-7555.2470703125,-7713.1621093750,-7494.9868164063,-75395.5156250000,-115382.9218750000,-127528.3906250000,-141262.0312500000,,,
2.3239999961,18,-7425.6069335938,-7556.6777343750,-7714.5029296875,-7496.3725585938,-75396.8828125000,-115384.4140625000,-127529.7734375000,-141263.3281250000,,,
2.3279999963,18,-7428.0878906250,-7559.0693359375,-7716.7607421875,-7498.6298828125,-75399.1562500000,-115386.6328125000,-127531.9453125000,-141265.4843750000,,,
2.3319999962,18,-7426.1655273438,-7557.1245117188,-7715.0170898438,-7496.7524414063,-75397.3671875000,-115384.7109375000,-127529.9765625000,-141263.6406250000,,,
2.3359999962,18,-7422.4775390625,-7553.5258789063,-7711.5078125000,-7493.3549804688,-75393.8593750000,-115381.2890625000,-127526.5781250000,-141260.3125000000,,,
2.3399999961,18,-7425.5175781250,-7556.6103515625,-7714.3916015625,-7496.3056640625,-75396.8593750000,-115384.3281250000,-127529.5937500000,-141263.2187500000,,,
2.3439999961,18,-7426.4785156250,-7557.5717773438,-7715.1962890625,-7497.0878906250,-75397.6640625000,-115385.1093750000,-127530.3125000000,-141263.7812500000,,,
2.3479999963,18,-7427.1269531250,-7558.2866210938,-7715.9560546875,-7497.8251953125,-75398.2656250000,-115385.6015625000,-127530.8437500000,-141264.3906250000,,,
2.3519999962,18,-7422.6562500000,-7553.9282226563,-7711.7089843750,-7493.5786132813,-75393.9921875000,-115381.3125000000,-127526.6250000000,-141260.3125000000,,,
2.3559999962,18,-7422.0307617188,-7553.3471679688,-7711.1054687500,-7493.0195312500,-75393.4609375000,-115380.9062500000,-127526.0859375000,-141259.7500000000,,,
2.3599999961,18,-7424.0869140625,-7555.3588867188,-7713.0053710938,-7494.8300781250,-75395.2734375000,-115382.7656250000,-127527.8984375000,-141261.4843750000,,,
2.3639999961,18,-7422.7680664063,-7554.0175781250,-7711.6870117188,-7493.4443359375,-75393.9062500000,-115381.2187500000,-127526.3281250000,-141259.9062500000,,,
2.3679999961,18,-7419.1469726563,-7550.5532226563,-7708.2670898438,-7490.0244140625,-75390.5546875000,-115377.8437500000,-127523.0937500000,-141256.6562500000,,,
2.3719999962,18,-7420.3989257813,-7551.6708984375,-7709.3847656250,-7491.1645507813,-75391.7812500000,-115379.1171875000,-127524.3203125000,-141258.0156250000,,,
2.3759999962,18,-7424.6904296875,-7555.8281250000,-7713.4077148438,-7495.2548828125,-75395.8281250000,-115383.1406250000,-127528.2968750000,-141261.9843750000,,,
2.3799999962,18,-7423.5727539063,-7554.7329101563,-7712.2680664063,-7494.0478515625,-75394.5781250000,-115381.8046875000,-127527.0468750000,-141260.6093750000,,,
2.3839999961,18,-7418.4096679688,-7549.5698242188,-7707.1943359375,-7488.9965820313,-75389.5234375000,-115376.8203125000,-127521.9921875000,-141255.5937500000,,,
2.3879999961,18,-7418.6777343750,-7550.0166015625,-7707.5966796875,-7489.5327148438,-75389.9921875000,-115377.3984375000,-127522.5078125000,-141256.1562500000,,,
2.3919999963,18,-7424.1762695313,-7555.4707031250,-7712.9609375000,-7494.7407226563,-75395.2734375000,-115382.7187500000,-127527.7421875000,-141261.4375000000,,,
2.3959999962,18,-7422.9916992188,-7554.2187500000,-7711.6196289063,-7493.3774414063,-75394.0156250000,-115381.1953125000,-127526.3125000000,-141260.0468750000,,,
2.3999999962,18,-7421.5390625000,-7552.7880859375,-7710.2338867188,-7491.9243164063,-75392.6796875000,-115379.7890625000,-127524.8750000000,-141258.7031250000,,,
2.4039999961,18,-7421.9189453125,-7553.2578125000,-7710.8823242188,-7492.4384765625,-75393.2578125000,-115380.4140625000,-127525.4375000000,-141259.2656250000,,,
2.4079999961,18,-7425.4501953125,-7556.6552734375,-7714.1679687500,-7495.7465820313,-75396.4062500000,-115383.7500000000,-127528.7656250000,-141262.5000000000,,,
2.4119999961,18,-7426.6572265625,-7557.7949218750,-7715.2856445313,-7496.9311523438,-75397.4375000000,-115384.7734375000,-127529.6875000000,-141263.4218750000,,,
2.4159999962,18,-7424.7797851563,-7556.0742187500,-7713.6313476563,-7495.3442382813,-75395.7656250000,-115382.9843750000,-127527.8515625000,-141261.7187500000,,,
2.4199999962,18,-7423.0366210938,-7554.3974609375,-7712.1113281250,-7493.8022460938,-75394.1718750000,-115381.3984375000,-127526.4687500000,-141260.3125000000,,,
2.4239999962,18,-7425.0258789063,-7556.4091796875,-7713.8325195313,-7495.6347656250,-75396.0937500000,-115383.3671875000,-127528.4062500000,-141262.1718750000,,,
2.4279999961,18,-7424.9365234375,-7556.2529296875,-7713.5869140625,-7495.4111328125,-75395.7656250000,-115383.0781250000,-127528.0078125000,-141261.7500000000,,,
2.4319999961,19,-7422.0976562500,-7553.4589843750,-7710.9492187500,-7492.6845703125,-75393.1250000000,-115380.2343750000,-127525.2343750000,-141258.9218750000,,,
2.4359999960,19,-7419.9072265625,-7551.3354492188,-7708.9150390625,-7490.6953125000,-75391.1328125000,-115378.2734375000,-127523.2265625000,-141257.1250000000,,,
2.4399999960,19,-7422.2539062500,-7553.6376953125,-7711.0610351563,-7492.9082031250,-75393.3046875000,-115380.5078125000,-127525.5078125000,-141259.3750000000,,,
2.4439999959,19,-7424.5341796875,-7555.8281250000,-7713.1621093750,-7495.0761718750,-75395.3828125000,-115382.5390625000,-127527.4296875000,-141261.3437500000,,,
2.4479999959,19,-7420.0415039063,-7551.3803710938,-7708.7587890625,-7490.6059570313,-75390.9765625000,-115378.0468750000,-127522.9765625000,-141256.8125000000,,,
2.4519999959,19,-7419.7954101563,-7551.2236328125,-7708.6469726563,-7490.4941406250,-75390.8906250000,-115377.9609375000,-127522.9765625000,-141256.8125000000,,,
2.4559999960,19,-7421.3378906250,-7552.7436523438,-7710.1000976563,-7491.8349609375,-75392.3203125000,-115379.4531250000,-127524.4296875000,-141258.2656250000,,,
2.4599999960,19,-7422.0976562500,-7553.3696289063,-7710.7705078125,-7492.3491210938,-75392.8593750000,-115379.9687500000,-127524.9453125000,-141258.6562500000,,,
2.4639999960,19,-7421.9858398438,-7553.2578125000,-7710.7031250000,-7492.3046875000,-75392.8593750000,-115379.7421875000,-127524.7421875000,-141258.4843750000,,,
2.4679999959,19,-7419.8403320313,-7551.1791992188,-7708.7812500000,-7490.4492187500,-75390.9531250000,-115377.8671875000,-127522.8203125000,-141256.6718750000,,,
2.4719999959,19,-7421.5166015625,-7552.8999023438,-7710.4575195313,-7492.2822265625,-75392.7421875000,-115379.7656250000,-127524.6562500000,-141258.5312500000,,,
2.4759999961,19,-7423.8188476563,-7555.1127929688,-7712.5136718750,-7494.4057617188,-75394.8203125000,-115381.8671875000,-127526.7109375000,-141260.5781250000,,,
2.4799999960,19,-7424.7128906250,-7555.9399414063,-7713.3857421875,-7495.2099609375,-75395.5859375000,-115382.5390625000,-127527.3359375000,-141261.1875000000,,,
2.4839999960,19,-7423.0366210938,-7554.2636718750,-7711.8208007813,-7493.5786132813,-75394.0390625000,-115380.9062500000,-127525.7734375000,-141259.5781250000,,,
2.4879999959,19,-7423.9526367188,-7555.2695312500,-7712.8940429688,-7494.6962890625,-75395.2265625000,-115382.0703125000,-127526.8671875000,-141260.7656250000,,,
2.4919999959,19,-7424.6235351563,-7555.9843750000,-7713.3857421875,-7495.2998046875,-75395.6484375000,-115382.5859375000,-127527.3359375000,-141261.1875000000,,,
2.4959999959,19,-7423.5058593750,-7554.7553710938,-7712.2680664063,-7494.0034179688,-75394.3750000000,-115381.3125000000,-127525.9921875000,-141259.9062500000,,,
2.4999999960,19,-7422.1645507813,-7553.4365234375,-7711.0610351563,-7492.7290039063,-75393.1484375000,-115380.0546875000,-127524.7656250000,-141258.7031250000,,,
2.5039999960,19,-7417.6274414063,-7549.1000976563,-7706.7470703125,-7488.4375000000,-75388.8750000000,-115375.7031250000,-127520.4765625000,-141254.5000000000,,,
2.5079999960,19,-7417.2250976563,-7548.6533203125,-7706.0766601563,-7487.9013671875,-75388.2031250000,-115375.1640625000,-127519.8750000000,-141253.8750000000,,,
2.5119999959,19,-7420.1528320313,-7551.4472656250,-7708.7812500000,-7490.6059570313,-75390.9140625000,-115377.8671875000,-127522.4843750000,-141256.4687500000,,,
2.5159999959,19,-7419.4599609375,-7550.8437500000,-7708.2446289063,-7490.0024414063,-75390.3984375000,-115377.2421875000,-127521.7734375000,-141255.8281250000,,,
2.5199999961,19,-7419.0356445313,-7550.5532226563,-7707.9990234375,-7489.8012695313,-75390.2187500000,-115377.1562500000,-127521.7734375000,-141255.7968750000,,,
2.5239999960,19,-7419.4824218750,-7550.8881835938,-7708.2446289063,-7490.1362304688,-75390.4609375000,-115377.4218750000,-127522.0859375000,-141256.0312500000,,,
2.5279999960,19,-7420.7788085938,-7551.9614257813,-7709.2729492188,-7491.1420898438,-75391.5625000000,-115378.3359375000,-127522.9140625000,-141256.8437500000,,,
2.5319999959,19,-7420.1083984375,-7551.2905273438,-7708.7587890625,-7490.5610351563,-75390.8671875000,-115377.6250000000,-127522.1484375000,-141256.1093750000,,,
2.5359999959,19,-7420.5776367188,-7552.0283203125,-7709.4965820313,-7491.3208007813,-75391.6250000000,-115378.4687500000,-127523.0000000000,-141257.1250000000,,,
2.5399999958,19,-7421.3823242188,-7552.8330078125,-7710.2338867188,-7492.0361328125,-75392.4531250000,-115379.2500000000,-127523.7578125000,-141257.9218750000,,,
2.5439999960,19,-7424.3999023438,-7555.8056640625,-7713.0727539063,-7494.8974609375,-75395.2734375000,-115382.0468750000,-127526.6250000000,-141260.5156250000,,,
2.5479999960,19,-7425.8525390625,-7557.3032226563,-7714.5703125000,-7496.4169921875,-75396.7890625000,-115383.5000000000,-127528.0781250000,-141261.9843750000,,,
2.5519999960,19,-7420.9799804688,-7552.4755859375,-7710.0102539063,-7491.7011718750,-75392.0703125000,-115378.8281250000,-127523.4218750000,-141257.3593750000,,,
2.5559999959,19,-7418.7451171875,-7550.3071289063,-7707.6411132813,-7489.4658203125,-75389.7968750000,-115376.6406250000,-127521.1875000000,-141255.1718750000,,,
2.5599999959,20,-7420.8906250000,-7552.3857421875,-7709.5185546875,-7491.4106445313,-75391.6953125000,-115378.4921875000,-127522.9765625000,-141256.8906250000,,,
2.5639999958,20,-7423.5058593750,-7554.8671875000,-7712.1337890625,-7493.8022460938,-75394.1562500000,-115380.7968750000,-127525.2578125000,-141259.2656250000,,,
2.5679999958,20,-7422.4775390625,-7554.0175781250,-7711.3964843750,-7493.1313476563,-75393.4375000000,-115380.1718750000,-127524.6562500000,-141258.7500000000,,,
2.5719999957,20,-7419.9741210938,-7551.5810546875,-7709.0268554688,-7490.7622070313,-75391.1328125000,-115377.8046875000,-127522.3750000000,-141256.4531250000,,,
2.5759999957,20,-7419.7954101563,-7551.2905273438,-7708.6025390625,-7490.3149414063,-75390.6640625000,-115377.3515625000,-127521.9687500000,-141255.9062500000,,,
2.5799999957,20,-7418.0966796875,-7549.5473632813,-7706.8139648438,-7488.5048828125,-75388.7656250000,-115375.5000000000,-127520.0703125000,-141254.0312500000,,,
2.5839999958,20,-7414.2744140625,-7545.8144531250,-7703.0590820313,-7484.7944335938,-75385.1484375000,-115371.8125000000,-127516.2734375000,-141250.4062500000,,,
2.5879999958,20,-7417.0239257813,-7548.6533203125,-7706.0092773438,-7487.6777343750,-75388.0937500000,-115374.7187500000,-127519.1562500000,-141253.3437500000,,,
2.5919999958,20,-7420.1308593750,-7551.6484375000,-7708.7812500000,-7490.6059570313,-75390.9140625000,-115377.6875000000,-127521.9687500000,-141256.0625000000,,,
2.5959999957,20,-7419.2812500000,-7550.7988281250,-7707.8198242188,-7489.7119140625,-75389.9062500000,-115376.6171875000,-127520.9921875000,-141254.9531250000,,,
2.5999999957,20,-7417.9624023438,-7549.5249023438,-7706.7246093750,-7488.5493164063,-75388.8125000000,-115375.3203125000,-127519.8515625000,-141253.9062500000,,,
2.6039999959,20,-7414.9003906250,-7546.5522460938,-7703.9082031250,-7485.7109375000,-75386.0859375000,-115372.5703125000,-127516.9453125000,-141251.2187500000,,,
2.6079999958,20,-7417.4262695313,-7548.9213867188,-7706.1884765625,-7487.9682617188,-75388.2968750000,-115374.8984375000,-127519.1796875000,-141253.3906250000,,,
2.6119999958,20,-7418.5883789063,-7549.9497070313,-7707.2163085938,-7488.9965820313,-75389.2343750000,-115375.8593750000,-127520.0937500000,-141254.2656250000,,,
2.6159999957,20,-7419.2587890625,-7550.7768554688,-7708.1328125000,-7489.7788085938,-75390.0625000000,-115376.6171875000,-127520.8750000000,-141255.0000000000,,,
2.6199999957,20,-7418.7895507813,-7550.4189453125,-7707.8872070313,-7489.6445312500,-75389.8828125000,-115376.3281250000,-127520.7656250000,-141254.8437500000,,,
2.6239999956,20,-7420.1308593750,-7551.7377929688,-7709.0268554688,-7490.9184570313,-75391.0703125000,-115377.6406250000,-127521.9531250000,-141256.0625000000,,,
2.6279999958,20,-7421.0693359375,-7552.4975585938,-7709.7871093750,-7491.6562500000,-75391.8515625000,-115378.4296875000,-127522.6406250000,-141256.6250000000,,,
2.6319999958,20,-7420.9799804688,-7552.3857421875,-7709.8315429688,-7491.6113281250,-75391.8515625000,-115378.2734375000,-127522.5546875000,-141256.5312500000,,,
2.6359999957,20,-7420.1977539063,-7551.7153320313,-7709.2055664063,-7491.0976562500,-75391.3359375000,-115377.6406250000,-127521.9687500000,-141256.1562500000,,,
2.6399999957,20,-7421.8295898438,-7553.2353515625,-7710.7255859375,-7492.6621093750,-75392.8125000000,-115379.1875000000,-127523.4453125000,-141257.6718750000,,,
2.6439999957,20,-7423.7070312500,-7555.0458984375,-7712.4467773438,-7494.3608398438,-75394.5078125000,-115380.8203125000,-127525.0546875000,-141259.2187500000,,,
2.6479999959,20,-7424.1093750000,-7555.4707031250,-7712.8940429688,-7494.6289062500,-75394.9140625000,-115381.0859375000,-127525.3671875000,-141259.5312500000,,,
2.6519999958,20,-7422.7905273438,-7554.3081054688,-7711.8208007813,-7493.5336914063,-75393.8828125000,-115380.1250000000,-127524.4765625000,-141258.6093750000,,,
2.6559999958,20,-7425.7412109375,-7557.2587890625,-7714.7041015625,-7496.5068359375,-75396.7656250000,-115383.0781250000,-127527.3828125000,-141261.5156250000,,,
2.6599999957,20,-7427.3056640625,-7558.6220703125,-7716.0678710938,-7497.8032226563,-75398.0156250000,-115384.3515625000,-127528.5859375000,-141262.6250000000,,,
2.6639999957,20,-7423.7070312500,-7554.9340820313,-7712.3798828125,-7494.1372070313,-75394.3515625000,-115380.5703125000,-127524.7890625000,-141258.8906250000,,,
2.6679999956,20,-7421.7402343750,-7553.2353515625,-7710.7255859375,-7492.4833984375,-75392.6093750000,-115378.8281250000,-127523.0937500000,-141257.2343750000,,,
2.6719999958,20,-7424.1318359375,-7555.6269531250,-7713.1171875000,-7495.0092773438,-75395.1562500000,-115381.4218750000,-127525.6171875000,-141259.7187500000,,,
2.6759999958,20,-7424.2211914063,-7555.6718750000,-7712.9833984375,-7494.7407226563,-75394.9765625000,-115381.3984375000,-127525.4140625000,-141259.5312500000,,,
2.6799999957,20,-7421.1811523438,-7552.5869140625,-7709.9658203125,-7491.5000000000,-75391.7578125000,-115378.1796875000,-127522.0859375000,-141256.2031250000,,,
2.6839999957,20,-7420.1977539063,-7551.7377929688,-7709.0493164063,-7490.8291015625,-75391.0000000000,-115377.1718750000,-127521.2812500000,-141255.4375000000,,,
2.6879999957,21,-7422.0307617188,-7553.6821289063,-7711.0385742188,-7492.9082031250,-75393.0312500000,-115379.2734375000,-127523.4062500000,-141257.5625000000,,,
2.6919999956,21,-7422.0083007813,-7553.5034179688,-7710.6811523438,-7492.5727539063,-75392.7031250000,-115379.0546875000,-127522.9765625000,-141257.2968750000,,,
2.6959999956,21,-7422.3881835938,-7553.9282226563,-7711.1054687500,-7492.9082031250,-75393.0312500000,-115379.2968750000,-127523.1562500000,-141257.4375000000,,,
2.6999999955,21,-7420.3540039063,-7552.0058593750,-7709.2729492188,-7491.0302734375,-75391.1562500000,-115377.3281250000,-127521.2109375000,-141255.5156250000,,,
2.7039999955,21,-7417.2026367188,-7548.9882812500,-7706.4565429688,-7488.1918945313,-75388.3437500000,-115374.4921875000,-127518.5078125000,-141252.8125000000,,,
2.7079999954,21,-7418.8120117188,-7550.5083007813,-7707.8647460938,-7489.5776367188,-75389.6171875000,-115375.9453125000,-127519.8750000000,-141254.1250000000,,,
2.7119999956,21,-7420.6894531250,-7552.2963867188,-7709.5185546875,-7491.2314453125,-75391.3125000000,-115377.5078125000,-127521.4843750000,-141255.6406250000,,,
2.7159999956,21,-7420.6669921875,-7552.3413085938,-7709.6528320313,-7491.3881835938,-75391.3593750000,-115377.3984375000,-127521.5468750000,-141255.6718750000,,,
2.7199999955,21,-7420.0190429688,-7551.7602539063,-7709.1611328125,-7490.9633789063,-75390.9531250000,-115377.0390625000,-127521.0312500000,-141255.2343750000,,,
2.7239999955,21,-7418.4541015625,-7550.1953125000,-7707.4624023438,-7489.2197265625,-75389.2343750000,-115375.3671875000,-127519.2890625000,-141253.5156250000,,,
2.7279999955,21,-7422.1645507813,-7553.7270507813,-7711.0161132813,-7492.7963867188,-75392.7890625000,-115378.8984375000,-127522.7578125000,-141257.0000000000,,,
2.7319999957,21,-7423.1479492188,-7554.7553710938,-7712.0893554688,-7493.8916015625,-75393.9062500000,-115379.9453125000,-127523.7578125000,-141258.0781250000,,,
2.7359999956,21,-7420.4658203125,-7552.2519531250,-7709.6303710938,-7491.3881835938,-75391.3593750000,-115377.5078125000,-127521.4375000000,-141255.7343750000,,,
2.7399999956,21,-7419.1250000000,-7550.9331054688,-7708.1552734375,-7489.8681640625,-75390.0156250000,-115376.1718750000,-127520.0468750000,-141254.3750000000,,,
2.7439999955,21,-7420.4658203125,-7552.1401367188,-7709.2729492188,-7490.9858398438,-75391.0703125000,-115377.3750000000,-127521.0078125000,-141255.3593750000,,,
2.7479999955,21,-7418.9682617188,-7550.5756835938,-7707.8198242188,-7489.5327148438,-75389.4609375000,-115375.6562500000,-127519.3984375000,-141253.6718750000,,,
2.7519999954,21,-7416.6215820313,-7548.3178710938,-7705.6518554688,-7487.3872070313,-75387.2656250000,-115373.4843750000,-127517.2578125000,-141251.6250000000,,,
2.7559999956,21,-7416.3979492188,-7548.0498046875,-7705.2944335938,-7487.1186523438,-75387.1093750000,-115373.2421875000,-127517.0078125000,-141251.4218750000,,,
2.7599999956,21,-7418.6777343750,-7550.1733398438,-7707.3505859375,-7489.2871093750,-75389.2343750000,-115375.2109375000,-127519.0703125000,-141253.3437500000,,,
2.7639999955,21,-7420.1752929688,-7551.6928710938,-7708.8930664063,-7490.7846679688,-75390.7109375000,-115376.6406250000,-127520.5000000000,-141254.7343750000,,,
2.7679999955,21,-7420.5776367188,-7552.2963867188,-7709.5410156250,-7491.4550781250,-75391.3593750000,-115377.3515625000,-127521.1484375000,-141255.5156250000,,,
2.7719999955,21,-7418.7226562500,-7550.4638671875,-7707.8198242188,-7489.7119140625,-75389.6562500000,-115375.7031250000,-127519.4687500000,-141253.7812500000,,,
2.7759999956,21,-7421.5390625000,-7553.1684570313,-7710.3906250000,-7492.2822265625,-75392.1875000000,-115378.2500000000,-127521.9062500000,-141256.1875000000,,,
2.7799999956,21,-7422.0083007813,-7553.4809570313,-7710.7031250000,-7492.6171875000,-75392.4062500000,-115378.4687500000,-127522.1093750000,-141256.3593750000,,,
2.7839999956,21,-7420.6669921875,-7552.2744140625,-7709.5634765625,-7491.4775390625,-75391.3359375000,-115377.2421875000,-127520.9453125000,-141255.3125000000,,,
2.7879999955,21,-7420.2871093750,-7552.0283203125,-7709.2729492188,-7491.3208007813,-75391.2265625000,-115377.1562500000,-127520.8984375000,-141255.2656250000,,,
2.7919999955,21,-7422.9916992188,-7554.5986328125,-7711.7314453125,-7493.7797851563,-75393.5703125000,-115379.6328125000,-127523.2265625000,-141257.5937500000,,,
2.7959999954,21,-7425.4057617188,-7556.8784179688,-7714.0112304688,-7495.9477539063,-75395.8281250000,-115381.8046875000,-127525.3671875000,-141259.7968750000,,,
2.7999999956,21,-7425.9643554688,-7557.3706054688,-7714.7265625000,-7496.6406250000,-75396.5468750000,-115382.4062500000,-127525.9531250000,-141260.4531250000,,,
2.8039999956,21,-7425.2714843750,-7556.8115234375,-7714.2348632813,-7496.1264648438,-75396.0312500000,-115381.8671875000,-127525.6171875000,-141260.0625000000,,,
2.8079999955,21,-7427.2387695313,-7558.5771484375,-7715.9111328125,-7497.8251953125,-75397.7500000000,-115383.5703125000,-127527.2890625000,-141261.7031250000,,,
2.8119999955,21,-7428.9150390625,-7560.0751953125,-7717.4086914063,-7499.3901367188,-75399.1562500000,-115385.0000000000,-127528.6328125000,-141263.0156250000,,,
2.8159999955,22,-7426.9702148438,-7558.2197265625,-7715.5761718750,-7497.6464843750,-75397.3281250000,-115383.0781250000,-127526.7812500000,-141261.0937500000,,,
2.8199999954,22,-7422.7456054688,-7554.1518554688,-7711.4858398438,-7493.5786132813,-75393.3906250000,-115379.1171875000,-127522.7734375000,-141257.2343750000,,,
2.8239999954,22,-7423.2153320313,-7554.5766601563,-7711.8881835938,-7494.0253906250,-75393.8203125000,-115379.5234375000,-127523.1093750000,-141257.6562500000,,,
2.8279999953,22,-7422.3881835938,-7553.6152343750,-7710.8823242188,-7493.1313476563,-75392.7890625000,-115378.5859375000,-127522.0390625000,-141256.4687500000,,,
2.8319999953,22,-7419.9965820313,-7551.2011718750,-7708.5800781250,-7490.7172851563,-75390.3984375000,-115376.1015625000,-127519.6953125000,-141254.0781250000,,,
2.8359999952,22,-7418.4096679688,-7549.7929687500,-7707.2836914063,-7489.3095703125,-75389.0546875000,-115374.7187500000,-127518.3515625000,-141252.8750000000,,,
2.8399999954,22,-7420.3320312500,-7551.5810546875,-7709.1611328125,-7491.1420898438,-75390.8437500000,-115376.6171875000,-127520.0937500000,-141254.6562500000,,,
2.8439999954,22,-7420.3764648438,-7551.5810546875,-7708.9375000000,-7491.0527343750,-75390.7578125000,-115376.4609375000,-127519.9140625000,-141254.3281250000,,,
2.8479999953,22,-7421.7177734375,-7552.9448242188,-7710.4125976563,-7492.3266601563,-75392.1406250000,-115377.7578125000,-127521.3671875000,-141255.6718750000,,,
2.8519999953,22,-7422.1645507813,-7553.4589843750,-7710.9492187500,-7492.9526367188,-75392.7421875000,-115378.3359375000,-127521.9062500000,-141256.4218750000,,,
2.8559999953,22,-7422.0307617188,-7553.3022460938,-7710.7705078125,-7492.8857421875,-75392.6328125000,-115378.3359375000,-127521.7265625000,-141256.2968750000,,,
2.8599999954,22,-7422.3212890625,-7553.4589843750,-7710.8149414063,-7492.9526367188,-75392.6328125000,-115378.4453125000,-127521.7031250000,-141256.2187500000,,,
2.8639999954,22,-7420.2202148438,-7551.4023437500,-7708.6918945313,-7490.8291015625,-75390.5312500000,-115376.1250000000,-127519.4687500000,-141253.9375000000,,,
2.8679999954,22,-7416.3979492188,-7547.6025390625,-7704.9814453125,-7487.1411132813,-75386.8437500000,-115372.3437500000,-127515.8281250000,-141250.2968750000,,,
2.8719999953,22,-7415.7275390625,-7546.9990234375,-7704.4448242188,-7486.5600585938,-75386.3281250000,-115371.9921875000,-127515.3750000000,-141249.8750000000,,,
2.8759999953,22,-7420.2426757813,-7551.3129882813,-7708.6918945313,-7490.8071289063,-75390.5781250000,-115376.2109375000,-127519.5390625000,-141254.0937500000,,,
2.8799999952,22,-7419.7285156250,-7550.7988281250,-7708.2001953125,-7490.1362304688,-75389.9921875000,-115375.5859375000,-127518.9140625000,-141253.4687500000,,,
2.8839999954,22,-7418.2309570313,-7549.3461914063,-7706.8364257813,-7488.7954101563,-75388.5859375000,-115374.1328125000,-127517.5937500000,-141252.1562500000,,,
2.8879999954,22,-7419.6391601563,-7550.7768554688,-7708.2670898438,-7490.3598632813,-75390.2187500000,-115375.7031250000,-127519.1796875000,-141253.7812500000,,,
2.8919999953,22,-7420.3095703125,-7551.4023437500,-7708.8032226563,-7490.8964843750,-75390.6406250000,-115376.2109375000,-127519.6484375000,-141254.2656250000,,,
2.8959999953,22,-7421.1586914063,-7552.1401367188,-7709.5410156250,-7491.5893554688,-75391.3593750000,-115376.9296875000,-127520.3203125000,-141254.8437500000,,,
2.8999999953,22,-7418.8344726563,-7549.7260742188,-7707.2387695313,-7489.3315429688,-75389.0781250000,-115374.5625000000,-127517.9296875000,-141252.5312500000,,,
2.9039999954,22,-7418.7451171875,-7549.7485351563,-7707.3056640625,-7489.4658203125,-75389.2343750000,-115374.7578125000,-127518.1093750000,-141252.7812500000,,,
2.9079999954,22,-7417.5156250000,-7548.4521484375,-7705.9199218750,-7487.9907226563,-75387.8281250000,-115373.4609375000,-127516.7187500000,-141251.4375000000,,,
2.9119999954,22,-7418.9682617188,-7549.7260742188,-7707.3056640625,-7489.3315429688,-75389.1718750000,-115374.7578125000,-127517.9687500000,-141252.6562500000,,,
2.9159999953,22,-7418.1191406250,-7549.0107421875,-7706.5014648438,-7488.6386718750,-75388.4296875000,-115373.8906250000,-127517.2109375000,-141251.8593750000,,,
2.9199999953,22,-7417.6049804688,-7548.5415039063,-7706.1210937500,-7488.3256835938,-75388.2734375000,-115373.6406250000,-127517.0078125000,-141251.6406250000,,,
2.9239999952,22,-7419.4155273438,-7550.2177734375,-7707.7529296875,-7490.0468750000,-75389.8359375000,-115375.3203125000,-127518.6875000000,-141253.2812500000,,,
2.9279999954,22,-7420.8681640625,-7551.6928710938,-7708.9824218750,-7491.3432617188,-75391.0937500000,-115376.5937500000,-127519.8906250000,-141254.5468750000,,,
2.9319999954,22,-7416.4648437500,-7547.2895507813,-7704.7353515625,-7487.1186523438,-75386.7734375000,-115372.2343750000,-127515.4218750000,-141250.0937500000,,,
2.9359999953,22,-7415.4589843750,-7546.3510742188,-7704.0200195313,-7486.2919921875,-75385.9921875000,-115371.4765625000,-127514.7109375000,-141249.4375000000,,,
2.9399999953,22,-7414.6767578125,-7545.5463867188,-7703.1708984375,-7485.4648437500,-75385.1484375000,-115370.6953125000,-127513.8359375000,-141248.6093750000,,,
2.9439999952,23,-7415.4814453125,-7546.1943359375,-7703.7294921875,-7486.0683593750,-75385.7031250000,-115371.2265625000,-127514.3515625000,-141249.0937500000,,,
2.9479999952,23,-7415.7495117188,-7546.4179687500,-7704.0874023438,-7486.3588867188,-75386.0156250000,-115371.4765625000,-127514.6640625000,-141249.3593750000,,,
2.9519999952,23,-7418.2529296875,-7548.9663085938,-7706.7470703125,-7489.0410156250,-75388.7656250000,-115374.1796875000,-127517.4375000000,-141252.1406250000,,,
2.9559999951,23,-7417.7836914063,-7548.5639648438,-7706.1435546875,-7488.4375000000,-75388.2500000000,-115373.7812500000,-127516.9453125000,-141251.6875000000,,,
2.9599999951,23,-7418.5659179688,-7549.0332031250,-7706.5683593750,-7488.9965820313,-75388.7187500000,-115374.2031250000,-127517.3046875000,-141251.9375000000,,,
2.9639999950,23,-7416.5991210938,-7547.1108398438,-7704.7578125000,-7487.0742187500,-75386.8671875000,-115372.1484375000,-127515.2890625000,-141249.9375000000,,,
